# E (eV)  ldosup(E)  ldosdw(E) pdosup(E)  pdosdw(E)  pdosup(E)  pdosdw(E)  pdosup(E)  pdosdw(E)  pdosup(E)  pdosdw(E)  pdosup(E)  pdosdw(E) 
   5.000  0.000E+00  0.000E+00  0.000E+00  0.000E+00  0.000E+00  0.000E+00  0.000E+00  0.000E+00  0.000E+00  0.000E+00  0.000E+00  0.000E+00
   5.020  0.000E+00  0.000E+00  0.000E+00  0.000E+00  0.000E+00  0.000E+00  0.000E+00  0.000E+00  0.000E+00  0.000E+00  0.000E+00  0.000E+00
   5.040  0.000E+00  0.000E+00  0.000E+00  0.000E+00  0.000E+00  0.000E+00  0.000E+00  0.000E+00  0.000E+00  0.000E+00  0.000E+00  0.000E+00
   5.060  0.000E+00  0.000E+00  0.000E+00  0.000E+00  0.000E+00  0.000E+00  0.000E+00  0.000E+00  0.000E+00  0.000E+00  0.000E+00  0.000E+00
   5.080  0.000E+00  0.000E+00  0.000E+00  0.000E+00  0.000E+00  0.000E+00  0.000E+00  0.000E+00  0.000E+00  0.000E+00  0.000E+00  0.000E+00
   5.100  0.000E+00  0.000E+00  0.000E+00  0.000E+00  0.000E+00  0.000E+00  0.000E+00  0.000E+00  0.000E+00  0.000E+00  0.000E+00  0.000E+00
   5.120  0.000E+00  0.000E+00  0.000E+00  0.000E+00  0.000E+00  0.000E+00  0.000E+00  0.000E+00  0.000E+00  0.000E+00  0.000E+00  0.000E+00
   5.140  0.000E+00  0.000E+00  0.000E+00  0.000E+00  0.000E+00  0.000E+00  0.000E+00  0.000E+00  0.000E+00  0.000E+00  0.000E+00  0.000E+00
   5.160  0.000E+00  0.000E+00  0.000E+00  0.000E+00  0.000E+00  0.000E+00  0.000E+00  0.000E+00  0.000E+00  0.000E+00  0.000E+00  0.000E+00
   5.180  0.000E+00  0.000E+00  0.000E+00  0.000E+00  0.000E+00  0.000E+00  0.000E+00  0.000E+00  0.000E+00  0.000E+00  0.000E+00  0.000E+00
   5.200  0.000E+00  0.000E+00  0.000E+00  0.000E+00  0.000E+00  0.000E+00  0.000E+00  0.000E+00  0.000E+00  0.000E+00  0.000E+00  0.000E+00
   5.220  0.000E+00  0.000E+00  0.000E+00  0.000E+00  0.000E+00  0.000E+00  0.000E+00  0.000E+00  0.000E+00  0.000E+00  0.000E+00  0.000E+00
   5.240  0.000E+00  0.000E+00  0.000E+00  0.000E+00  0.000E+00  0.000E+00  0.000E+00  0.000E+00  0.000E+00  0.000E+00  0.000E+00  0.000E+00
   5.260  0.000E+00  0.000E+00  0.000E+00  0.000E+00  0.000E+00  0.000E+00  0.000E+00  0.000E+00  0.000E+00  0.000E+00  0.000E+00  0.000E+00
   5.280  0.000E+00  0.000E+00  0.000E+00  0.000E+00  0.000E+00  0.000E+00  0.000E+00  0.000E+00  0.000E+00  0.000E+00  0.000E+00  0.000E+00
   5.300  0.000E+00  0.000E+00  0.000E+00  0.000E+00  0.000E+00  0.000E+00  0.000E+00  0.000E+00  0.000E+00  0.000E+00  0.000E+00  0.000E+00
   5.320  0.000E+00  0.000E+00  0.000E+00  0.000E+00  0.000E+00  0.000E+00  0.000E+00  0.000E+00  0.000E+00  0.000E+00  0.000E+00  0.000E+00
   5.340  0.000E+00  0.000E+00  0.000E+00  0.000E+00  0.000E+00  0.000E+00  0.000E+00  0.000E+00  0.000E+00  0.000E+00  0.000E+00  0.000E+00
   5.360  0.000E+00  0.000E+00  0.000E+00  0.000E+00  0.000E+00  0.000E+00  0.000E+00  0.000E+00  0.000E+00  0.000E+00  0.000E+00  0.000E+00
   5.380  0.000E+00  0.000E+00  0.000E+00  0.000E+00  0.000E+00  0.000E+00  0.000E+00  0.000E+00  0.000E+00  0.000E+00  0.000E+00  0.000E+00
   5.400  0.000E+00  0.000E+00  0.000E+00  0.000E+00  0.000E+00  0.000E+00  0.000E+00  0.000E+00  0.000E+00  0.000E+00  0.000E+00  0.000E+00
   5.420  0.000E+00  0.000E+00  0.000E+00  0.000E+00  0.000E+00  0.000E+00  0.000E+00  0.000E+00  0.000E+00  0.000E+00  0.000E+00  0.000E+00
   5.440  0.000E+00  0.000E+00  0.000E+00  0.000E+00  0.000E+00  0.000E+00  0.000E+00  0.000E+00  0.000E+00  0.000E+00  0.000E+00  0.000E+00
   5.460  0.000E+00  0.000E+00  0.000E+00  0.000E+00  0.000E+00  0.000E+00  0.000E+00  0.000E+00  0.000E+00  0.000E+00  0.000E+00  0.000E+00
   5.480  0.378E-14  0.298E-14  0.420E-19  0.309E-20  0.126E-14  0.994E-15  0.126E-14  0.994E-15  0.420E-19  0.309E-20  0.126E-14  0.994E-15
   5.500  0.182E-13  0.143E-13  0.338E-18  0.306E-19  0.605E-14  0.477E-14  0.605E-14  0.477E-14  0.338E-18  0.306E-19  0.605E-14  0.477E-14
   5.520  0.764E-13  0.603E-13  0.146E-17  0.134E-18  0.255E-13  0.201E-13  0.255E-13  0.201E-13  0.146E-17  0.134E-18  0.255E-13  0.201E-13
   5.540  0.309E-12  0.244E-12  0.608E-17  0.559E-18  0.103E-12  0.813E-13  0.103E-12  0.813E-13  0.608E-17  0.559E-18  0.103E-12  0.813E-13
   5.560  0.120E-11  0.943E-12  0.242E-16  0.225E-17  0.399E-12  0.314E-12  0.399E-12  0.314E-12  0.242E-16  0.225E-17  0.399E-12  0.314E-12
   5.580  0.443E-11  0.349E-11  0.925E-16  0.865E-17  0.148E-11  0.116E-11  0.148E-11  0.116E-11  0.925E-16  0.865E-17  0.148E-11  0.116E-11
   5.600  0.157E-10  0.124E-10  0.344E-15  0.348E-16  0.525E-11  0.414E-11  0.525E-11  0.414E-11  0.344E-15  0.348E-16  0.525E-11  0.414E-11
   5.620  0.536E-10  0.423E-10  0.124E-14  0.139E-15  0.179E-10  0.141E-10  0.179E-10  0.141E-10  0.124E-14  0.139E-15  0.179E-10  0.141E-10
   5.640  0.175E-09  0.138E-09  0.424E-14  0.497E-15  0.583E-10  0.460E-10  0.583E-10  0.460E-10  0.424E-14  0.497E-15  0.583E-10  0.460E-10
   5.660  0.548E-09  0.432E-09  0.139E-13  0.172E-14  0.183E-09  0.144E-09  0.183E-09  0.144E-09  0.139E-13  0.172E-14  0.183E-09  0.144E-09
   5.680  0.164E-08  0.129E-08  0.439E-13  0.580E-14  0.547E-09  0.432E-09  0.547E-09  0.432E-09  0.439E-13  0.580E-14  0.547E-09  0.432E-09
   5.700  0.472E-08  0.372E-08  0.134E-12  0.190E-13  0.157E-08  0.124E-08  0.157E-08  0.124E-08  0.134E-12  0.190E-13  0.157E-08  0.124E-08
   5.720  0.130E-07  0.103E-07  0.394E-12  0.606E-13  0.434E-08  0.342E-08  0.434E-08  0.342E-08  0.394E-12  0.606E-13  0.434E-08  0.342E-08
   5.740  0.344E-07  0.272E-07  0.112E-11  0.188E-12  0.115E-07  0.905E-08  0.115E-07  0.905E-08  0.112E-11  0.188E-12  0.115E-07  0.905E-08
   5.760  0.874E-07  0.689E-07  0.307E-11  0.567E-12  0.291E-07  0.230E-07  0.291E-07  0.230E-07  0.307E-11  0.567E-12  0.291E-07  0.230E-07
   5.780  0.213E-06  0.168E-06  0.818E-11  0.167E-11  0.709E-07  0.558E-07  0.709E-07  0.558E-07  0.818E-11  0.167E-11  0.709E-07  0.558E-07
   5.800  0.496E-06  0.391E-06  0.211E-10  0.477E-11  0.165E-06  0.130E-06  0.165E-06  0.130E-06  0.211E-10  0.477E-11  0.165E-06  0.130E-06
   5.820  0.111E-05  0.876E-06  0.531E-10  0.133E-10  0.371E-06  0.292E-06  0.371E-06  0.292E-06  0.531E-10  0.133E-10  0.371E-06  0.292E-06
   5.840  0.239E-05  0.188E-05  0.130E-09  0.358E-10  0.797E-06  0.628E-06  0.797E-06  0.628E-06  0.130E-09  0.358E-10  0.797E-06  0.628E-06
   5.860  0.494E-05  0.389E-05  0.309E-09  0.936E-10  0.165E-05  0.130E-05  0.165E-05  0.130E-05  0.309E-09  0.936E-10  0.165E-05  0.130E-05
   5.880  0.980E-05  0.772E-05  0.717E-09  0.237E-09  0.327E-05  0.257E-05  0.327E-05  0.257E-05  0.717E-09  0.237E-09  0.327E-05  0.257E-05
   5.900  0.187E-04  0.147E-04  0.162E-08  0.583E-09  0.623E-05  0.491E-05  0.623E-05  0.491E-05  0.162E-08  0.583E-09  0.623E-05  0.491E-05
   5.920  0.343E-04  0.270E-04  0.359E-08  0.138E-08  0.114E-04  0.900E-05  0.114E-04  0.900E-05  0.359E-08  0.138E-08  0.114E-04  0.900E-05
   5.940  0.605E-04  0.477E-04  0.773E-08  0.317E-08  0.202E-04  0.159E-04  0.202E-04  0.159E-04  0.773E-08  0.317E-08  0.202E-04  0.159E-04
   5.960  0.103E-03  0.810E-04  0.162E-07  0.702E-08  0.343E-04  0.270E-04  0.343E-04  0.270E-04  0.162E-07  0.702E-08  0.343E-04  0.270E-04
   5.980  0.169E-03  0.133E-03  0.331E-07  0.150E-07  0.563E-04  0.443E-04  0.563E-04  0.443E-04  0.331E-07  0.150E-07  0.563E-04  0.443E-04
   6.000  0.268E-03  0.211E-03  0.658E-07  0.309E-07  0.892E-04  0.702E-04  0.892E-04  0.702E-04  0.658E-07  0.309E-07  0.892E-04  0.702E-04
   6.020  0.411E-03  0.323E-03  0.127E-06  0.615E-07  0.137E-03  0.108E-03  0.137E-03  0.108E-03  0.127E-06  0.615E-07  0.137E-03  0.108E-03
   6.040  0.611E-03  0.480E-03  0.237E-06  0.118E-06  0.204E-03  0.160E-03  0.204E-03  0.160E-03  0.237E-06  0.118E-06  0.204E-03  0.160E-03
   6.060  0.883E-03  0.694E-03  0.431E-06  0.219E-06  0.294E-03  0.231E-03  0.294E-03  0.231E-03  0.431E-06  0.219E-06  0.294E-03  0.231E-03
   6.080  0.124E-02  0.975E-03  0.757E-06  0.391E-06  0.414E-03  0.325E-03  0.414E-03  0.325E-03  0.757E-06  0.391E-06  0.414E-03  0.325E-03
   6.100  0.171E-02  0.134E-02  0.129E-05  0.676E-06  0.568E-03  0.446E-03  0.568E-03  0.446E-03  0.129E-05  0.676E-06  0.568E-03  0.446E-03
   6.120  0.229E-02  0.179E-02  0.213E-05  0.113E-05  0.762E-03  0.598E-03  0.762E-03  0.598E-03  0.213E-05  0.113E-05  0.762E-03  0.598E-03
   6.140  0.301E-02  0.236E-02  0.341E-05  0.182E-05  0.100E-02  0.785E-03  0.100E-02  0.785E-03  0.341E-05  0.182E-05  0.100E-02  0.785E-03
   6.160  0.388E-02  0.304E-02  0.528E-05  0.284E-05  0.129E-02  0.101E-02  0.129E-02  0.101E-02  0.528E-05  0.284E-05  0.129E-02  0.101E-02
   6.180  0.492E-02  0.384E-02  0.793E-05  0.429E-05  0.163E-02  0.128E-02  0.163E-02  0.128E-02  0.793E-05  0.429E-05  0.163E-02  0.128E-02
   6.200  0.611E-02  0.477E-02  0.115E-04  0.628E-05  0.203E-02  0.159E-02  0.203E-02  0.159E-02  0.115E-04  0.628E-05  0.203E-02  0.159E-02
   6.220  0.744E-02  0.581E-02  0.163E-04  0.891E-05  0.247E-02  0.193E-02  0.247E-02  0.193E-02  0.163E-04  0.891E-05  0.247E-02  0.193E-02
   6.240  0.889E-02  0.693E-02  0.224E-04  0.123E-04  0.295E-02  0.230E-02  0.295E-02  0.230E-02  0.224E-04  0.123E-04  0.295E-02  0.230E-02
   6.260  0.104E-01  0.811E-02  0.300E-04  0.164E-04  0.345E-02  0.269E-02  0.345E-02  0.269E-02  0.300E-04  0.164E-04  0.345E-02  0.269E-02
   6.280  0.120E-01  0.931E-02  0.390E-04  0.214E-04  0.396E-02  0.309E-02  0.396E-02  0.309E-02  0.390E-04  0.214E-04  0.396E-02  0.309E-02
   6.300  0.135E-01  0.105E-01  0.496E-04  0.272E-04  0.445E-02  0.347E-02  0.445E-02  0.347E-02  0.496E-04  0.272E-04  0.445E-02  0.347E-02
   6.320  0.148E-01  0.115E-01  0.617E-04  0.338E-04  0.491E-02  0.382E-02  0.491E-02  0.382E-02  0.617E-04  0.338E-04  0.491E-02  0.382E-02
   6.340  0.161E-01  0.125E-01  0.753E-04  0.412E-04  0.532E-02  0.414E-02  0.532E-02  0.414E-02  0.753E-04  0.412E-04  0.532E-02  0.414E-02
   6.360  0.172E-01  0.133E-01  0.906E-04  0.493E-04  0.567E-02  0.440E-02  0.567E-02  0.440E-02  0.906E-04  0.493E-04  0.567E-02  0.440E-02
   6.380  0.181E-01  0.140E-01  0.108E-03  0.584E-04  0.596E-02  0.463E-02  0.596E-02  0.463E-02  0.108E-03  0.584E-04  0.596E-02  0.463E-02
   6.400  0.189E-01  0.146E-01  0.127E-03  0.685E-04  0.620E-02  0.481E-02  0.620E-02  0.481E-02  0.127E-03  0.685E-04  0.620E-02  0.481E-02
   6.420  0.195E-01  0.150E-01  0.150E-03  0.800E-04  0.640E-02  0.496E-02  0.640E-02  0.496E-02  0.150E-03  0.800E-04  0.640E-02  0.496E-02
   6.440  0.201E-01  0.155E-01  0.176E-03  0.932E-04  0.658E-02  0.509E-02  0.658E-02  0.509E-02  0.176E-03  0.932E-04  0.658E-02  0.509E-02
   6.460  0.207E-01  0.159E-01  0.208E-03  0.109E-03  0.676E-02  0.522E-02  0.676E-02  0.522E-02  0.208E-03  0.109E-03  0.676E-02  0.522E-02
   6.480  0.213E-01  0.163E-01  0.247E-03  0.128E-03  0.694E-02  0.535E-02  0.694E-02  0.535E-02  0.247E-03  0.128E-03  0.694E-02  0.535E-02
   6.500  0.221E-01  0.168E-01  0.295E-03  0.152E-03  0.716E-02  0.551E-02  0.716E-02  0.551E-02  0.295E-03  0.152E-03  0.716E-02  0.551E-02
   6.520  0.229E-01  0.174E-01  0.355E-03  0.181E-03  0.741E-02  0.569E-02  0.741E-02  0.569E-02  0.355E-03  0.181E-03  0.741E-02  0.569E-02
   6.540  0.240E-01  0.182E-01  0.429E-03  0.216E-03  0.772E-02  0.592E-02  0.772E-02  0.592E-02  0.429E-03  0.216E-03  0.772E-02  0.592E-02
   6.560  0.253E-01  0.191E-01  0.519E-03  0.259E-03  0.810E-02  0.620E-02  0.810E-02  0.620E-02  0.519E-03  0.259E-03  0.810E-02  0.620E-02
   6.580  0.269E-01  0.202E-01  0.626E-03  0.310E-03  0.855E-02  0.653E-02  0.855E-02  0.653E-02  0.626E-03  0.310E-03  0.855E-02  0.653E-02
   6.600  0.287E-01  0.215E-01  0.749E-03  0.368E-03  0.907E-02  0.691E-02  0.907E-02  0.691E-02  0.749E-03  0.368E-03  0.907E-02  0.691E-02
   6.620  0.307E-01  0.228E-01  0.886E-03  0.432E-03  0.963E-02  0.732E-02  0.963E-02  0.732E-02  0.886E-03  0.432E-03  0.963E-02  0.732E-02
   6.640  0.327E-01  0.242E-01  0.103E-02  0.501E-03  0.102E-01  0.775E-02  0.102E-01  0.775E-02  0.103E-02  0.501E-03  0.102E-01  0.775E-02
   6.660  0.346E-01  0.256E-01  0.119E-02  0.571E-03  0.107E-01  0.815E-02  0.107E-01  0.815E-02  0.119E-02  0.571E-03  0.107E-01  0.815E-02
   6.680  0.363E-01  0.267E-01  0.134E-02  0.641E-03  0.112E-01  0.849E-02  0.112E-01  0.849E-02  0.134E-02  0.641E-03  0.112E-01  0.849E-02
   6.700  0.377E-01  0.277E-01  0.150E-02  0.709E-03  0.116E-01  0.875E-02  0.116E-01  0.875E-02  0.150E-02  0.709E-03  0.116E-01  0.875E-02
   6.720  0.387E-01  0.283E-01  0.166E-02  0.775E-03  0.118E-01  0.891E-02  0.118E-01  0.891E-02  0.166E-02  0.775E-03  0.118E-01  0.891E-02
   6.740  0.394E-01  0.286E-01  0.182E-02  0.841E-03  0.119E-01  0.898E-02  0.119E-01  0.898E-02  0.182E-02  0.841E-03  0.119E-01  0.898E-02
   6.760  0.398E-01  0.288E-01  0.200E-02  0.909E-03  0.119E-01  0.899E-02  0.119E-01  0.899E-02  0.200E-02  0.909E-03  0.119E-01  0.899E-02
   6.780  0.402E-01  0.289E-01  0.220E-02  0.985E-03  0.119E-01  0.897E-02  0.119E-01  0.897E-02  0.220E-02  0.985E-03  0.119E-01  0.897E-02
   6.800  0.408E-01  0.291E-01  0.243E-02  0.107E-02  0.120E-01  0.898E-02  0.120E-01  0.898E-02  0.243E-02  0.107E-02  0.120E-01  0.898E-02
   6.820  0.418E-01  0.295E-01  0.272E-02  0.118E-02  0.121E-01  0.906E-02  0.121E-01  0.906E-02  0.272E-02  0.118E-02  0.121E-01  0.906E-02
   6.840  0.433E-01  0.303E-01  0.305E-02  0.130E-02  0.124E-01  0.923E-02  0.124E-01  0.923E-02  0.305E-02  0.130E-02  0.124E-01  0.923E-02
   6.860  0.454E-01  0.315E-01  0.345E-02  0.145E-02  0.128E-01  0.952E-02  0.128E-01  0.952E-02  0.345E-02  0.145E-02  0.128E-01  0.952E-02
   6.880  0.480E-01  0.330E-01  0.392E-02  0.162E-02  0.134E-01  0.990E-02  0.134E-01  0.990E-02  0.392E-02  0.162E-02  0.134E-01  0.990E-02
   6.900  0.510E-01  0.347E-01  0.445E-02  0.182E-02  0.140E-01  0.104E-01  0.140E-01  0.104E-01  0.445E-02  0.182E-02  0.140E-01  0.104E-01
   6.920  0.544E-01  0.366E-01  0.507E-02  0.204E-02  0.147E-01  0.108E-01  0.147E-01  0.108E-01  0.507E-02  0.204E-02  0.147E-01  0.108E-01
   6.940  0.579E-01  0.385E-01  0.579E-02  0.229E-02  0.154E-01  0.113E-01  0.154E-01  0.113E-01  0.579E-02  0.229E-02  0.154E-01  0.113E-01
   6.960  0.616E-01  0.405E-01  0.663E-02  0.257E-02  0.161E-01  0.118E-01  0.161E-01  0.118E-01  0.663E-02  0.257E-02  0.161E-01  0.118E-01
   6.980  0.655E-01  0.424E-01  0.763E-02  0.290E-02  0.167E-01  0.122E-01  0.167E-01  0.122E-01  0.763E-02  0.290E-02  0.167E-01  0.122E-01
   7.000  0.696E-01  0.442E-01  0.881E-02  0.328E-02  0.173E-01  0.126E-01  0.173E-01  0.126E-01  0.881E-02  0.328E-02  0.173E-01  0.126E-01
   7.020  0.741E-01  0.462E-01  0.102E-01  0.371E-02  0.179E-01  0.129E-01  0.179E-01  0.129E-01  0.102E-01  0.371E-02  0.179E-01  0.129E-01
   7.040  0.792E-01  0.483E-01  0.118E-01  0.420E-02  0.185E-01  0.133E-01  0.185E-01  0.133E-01  0.118E-01  0.420E-02  0.185E-01  0.133E-01
   7.060  0.847E-01  0.506E-01  0.135E-01  0.473E-02  0.192E-01  0.137E-01  0.192E-01  0.137E-01  0.135E-01  0.473E-02  0.192E-01  0.137E-01
   7.080  0.906E-01  0.530E-01  0.155E-01  0.529E-02  0.199E-01  0.141E-01  0.199E-01  0.141E-01  0.155E-01  0.529E-02  0.199E-01  0.141E-01
   7.100  0.968E-01  0.555E-01  0.175E-01  0.588E-02  0.206E-01  0.146E-01  0.206E-01  0.146E-01  0.175E-01  0.588E-02  0.206E-01  0.146E-01
   7.120  0.103E+00  0.578E-01  0.196E-01  0.646E-02  0.213E-01  0.150E-01  0.213E-01  0.150E-01  0.196E-01  0.646E-02  0.213E-01  0.150E-01
   7.140  0.109E+00  0.600E-01  0.216E-01  0.703E-02  0.218E-01  0.153E-01  0.218E-01  0.153E-01  0.216E-01  0.703E-02  0.218E-01  0.153E-01
   7.160  0.114E+00  0.620E-01  0.237E-01  0.760E-02  0.222E-01  0.156E-01  0.222E-01  0.156E-01  0.237E-01  0.760E-02  0.222E-01  0.156E-01
   7.180  0.119E+00  0.636E-01  0.257E-01  0.815E-02  0.225E-01  0.158E-01  0.225E-01  0.158E-01  0.257E-01  0.815E-02  0.225E-01  0.158E-01
   7.200  0.123E+00  0.650E-01  0.278E-01  0.873E-02  0.226E-01  0.159E-01  0.226E-01  0.159E-01  0.278E-01  0.873E-02  0.226E-01  0.159E-01
   7.220  0.128E+00  0.664E-01  0.300E-01  0.935E-02  0.226E-01  0.159E-01  0.226E-01  0.159E-01  0.300E-01  0.935E-02  0.226E-01  0.159E-01
   7.240  0.132E+00  0.679E-01  0.323E-01  0.101E-01  0.225E-01  0.159E-01  0.225E-01  0.159E-01  0.323E-01  0.101E-01  0.225E-01  0.159E-01
   7.260  0.137E+00  0.696E-01  0.348E-01  0.109E-01  0.225E-01  0.160E-01  0.225E-01  0.160E-01  0.348E-01  0.109E-01  0.225E-01  0.160E-01
   7.280  0.142E+00  0.716E-01  0.374E-01  0.118E-01  0.225E-01  0.160E-01  0.225E-01  0.160E-01  0.374E-01  0.118E-01  0.225E-01  0.160E-01
   7.300  0.148E+00  0.741E-01  0.401E-01  0.128E-01  0.226E-01  0.162E-01  0.226E-01  0.162E-01  0.401E-01  0.128E-01  0.226E-01  0.162E-01
   7.320  0.154E+00  0.769E-01  0.428E-01  0.139E-01  0.227E-01  0.164E-01  0.227E-01  0.164E-01  0.428E-01  0.139E-01  0.227E-01  0.164E-01
   7.340  0.159E+00  0.799E-01  0.453E-01  0.150E-01  0.230E-01  0.167E-01  0.230E-01  0.167E-01  0.453E-01  0.150E-01  0.230E-01  0.167E-01
   7.360  0.164E+00  0.828E-01  0.474E-01  0.160E-01  0.232E-01  0.169E-01  0.232E-01  0.169E-01  0.474E-01  0.160E-01  0.232E-01  0.169E-01
   7.380  0.168E+00  0.853E-01  0.489E-01  0.170E-01  0.233E-01  0.171E-01  0.233E-01  0.171E-01  0.489E-01  0.170E-01  0.233E-01  0.171E-01
   7.400  0.169E+00  0.871E-01  0.496E-01  0.177E-01  0.234E-01  0.173E-01  0.234E-01  0.173E-01  0.496E-01  0.177E-01  0.234E-01  0.173E-01
   7.420  0.169E+00  0.880E-01  0.496E-01  0.181E-01  0.233E-01  0.173E-01  0.233E-01  0.173E-01  0.496E-01  0.181E-01  0.233E-01  0.173E-01
   7.440  0.166E+00  0.878E-01  0.486E-01  0.182E-01  0.229E-01  0.171E-01  0.229E-01  0.171E-01  0.486E-01  0.182E-01  0.229E-01  0.171E-01
   7.460  0.161E+00  0.865E-01  0.468E-01  0.181E-01  0.223E-01  0.168E-01  0.223E-01  0.168E-01  0.468E-01  0.181E-01  0.223E-01  0.168E-01
   7.480  0.153E+00  0.841E-01  0.443E-01  0.176E-01  0.215E-01  0.163E-01  0.215E-01  0.163E-01  0.443E-01  0.176E-01  0.215E-01  0.163E-01
   7.500  0.144E+00  0.808E-01  0.413E-01  0.170E-01  0.205E-01  0.156E-01  0.205E-01  0.156E-01  0.413E-01  0.170E-01  0.205E-01  0.156E-01
   7.520  0.134E+00  0.768E-01  0.380E-01  0.161E-01  0.194E-01  0.148E-01  0.194E-01  0.148E-01  0.380E-01  0.161E-01  0.194E-01  0.148E-01
   7.540  0.124E+00  0.724E-01  0.345E-01  0.152E-01  0.182E-01  0.140E-01  0.182E-01  0.140E-01  0.345E-01  0.152E-01  0.182E-01  0.140E-01
   7.560  0.113E+00  0.679E-01  0.311E-01  0.142E-01  0.170E-01  0.132E-01  0.170E-01  0.132E-01  0.311E-01  0.142E-01  0.170E-01  0.132E-01
   7.580  0.104E+00  0.636E-01  0.279E-01  0.133E-01  0.159E-01  0.123E-01  0.159E-01  0.123E-01  0.279E-01  0.133E-01  0.159E-01  0.123E-01
   7.600  0.946E-01  0.595E-01  0.250E-01  0.125E-01  0.149E-01  0.115E-01  0.149E-01  0.115E-01  0.250E-01  0.125E-01  0.149E-01  0.115E-01
   7.620  0.867E-01  0.558E-01  0.223E-01  0.117E-01  0.140E-01  0.108E-01  0.140E-01  0.108E-01  0.223E-01  0.117E-01  0.140E-01  0.108E-01
   7.640  0.799E-01  0.526E-01  0.201E-01  0.110E-01  0.132E-01  0.102E-01  0.132E-01  0.102E-01  0.201E-01  0.110E-01  0.132E-01  0.102E-01
   7.660  0.742E-01  0.498E-01  0.182E-01  0.105E-01  0.126E-01  0.962E-02  0.126E-01  0.962E-02  0.182E-01  0.105E-01  0.126E-01  0.962E-02
   7.680  0.695E-01  0.476E-01  0.166E-01  0.100E-01  0.121E-01  0.917E-02  0.121E-01  0.917E-02  0.166E-01  0.100E-01  0.121E-01  0.917E-02
   7.700  0.658E-01  0.458E-01  0.154E-01  0.968E-02  0.117E-01  0.880E-02  0.117E-01  0.880E-02  0.154E-01  0.968E-02  0.117E-01  0.880E-02
   7.720  0.631E-01  0.444E-01  0.144E-01  0.941E-02  0.114E-01  0.852E-02  0.114E-01  0.852E-02  0.144E-01  0.941E-02  0.114E-01  0.852E-02
   7.740  0.610E-01  0.433E-01  0.138E-01  0.921E-02  0.112E-01  0.830E-02  0.112E-01  0.830E-02  0.138E-01  0.921E-02  0.112E-01  0.830E-02
   7.760  0.596E-01  0.426E-01  0.133E-01  0.906E-02  0.110E-01  0.815E-02  0.110E-01  0.815E-02  0.133E-01  0.906E-02  0.110E-01  0.815E-02
   7.780  0.586E-01  0.420E-01  0.130E-01  0.894E-02  0.109E-01  0.803E-02  0.109E-01  0.803E-02  0.130E-01  0.894E-02  0.109E-01  0.803E-02
   7.800  0.579E-01  0.414E-01  0.129E-01  0.884E-02  0.107E-01  0.792E-02  0.107E-01  0.792E-02  0.129E-01  0.884E-02  0.107E-01  0.792E-02
   7.820  0.574E-01  0.409E-01  0.128E-01  0.873E-02  0.106E-01  0.780E-02  0.106E-01  0.780E-02  0.128E-01  0.873E-02  0.106E-01  0.780E-02
   7.840  0.567E-01  0.402E-01  0.128E-01  0.862E-02  0.103E-01  0.765E-02  0.103E-01  0.765E-02  0.128E-01  0.862E-02  0.103E-01  0.765E-02
   7.860  0.559E-01  0.393E-01  0.129E-01  0.849E-02  0.100E-01  0.746E-02  0.100E-01  0.746E-02  0.129E-01  0.849E-02  0.100E-01  0.746E-02
   7.880  0.549E-01  0.383E-01  0.129E-01  0.834E-02  0.968E-02  0.720E-02  0.968E-02  0.720E-02  0.129E-01  0.834E-02  0.968E-02  0.720E-02
   7.900  0.535E-01  0.370E-01  0.129E-01  0.817E-02  0.926E-02  0.689E-02  0.926E-02  0.689E-02  0.129E-01  0.817E-02  0.926E-02  0.689E-02
   7.920  0.520E-01  0.356E-01  0.128E-01  0.799E-02  0.879E-02  0.654E-02  0.879E-02  0.654E-02  0.128E-01  0.799E-02  0.879E-02  0.654E-02
   7.940  0.503E-01  0.341E-01  0.127E-01  0.780E-02  0.832E-02  0.617E-02  0.832E-02  0.617E-02  0.127E-01  0.780E-02  0.832E-02  0.617E-02
   7.960  0.486E-01  0.326E-01  0.125E-01  0.760E-02  0.788E-02  0.580E-02  0.788E-02  0.580E-02  0.125E-01  0.760E-02  0.788E-02  0.580E-02
   7.980  0.470E-01  0.311E-01  0.122E-01  0.738E-02  0.751E-02  0.546E-02  0.751E-02  0.546E-02  0.122E-01  0.738E-02  0.751E-02  0.546E-02
   8.000  0.457E-01  0.298E-01  0.120E-01  0.716E-02  0.723E-02  0.517E-02  0.723E-02  0.517E-02  0.120E-01  0.716E-02  0.723E-02  0.517E-02
   8.020  0.449E-01  0.287E-01  0.118E-01  0.692E-02  0.708E-02  0.496E-02  0.708E-02  0.496E-02  0.118E-01  0.692E-02  0.708E-02  0.496E-02
   8.040  0.446E-01  0.279E-01  0.117E-01  0.668E-02  0.708E-02  0.484E-02  0.708E-02  0.484E-02  0.117E-01  0.668E-02  0.708E-02  0.484E-02
   8.060  0.450E-01  0.274E-01  0.117E-01  0.645E-02  0.722E-02  0.483E-02  0.722E-02  0.483E-02  0.117E-01  0.645E-02  0.722E-02  0.483E-02
   8.080  0.462E-01  0.273E-01  0.118E-01  0.622E-02  0.753E-02  0.494E-02  0.753E-02  0.494E-02  0.118E-01  0.622E-02  0.753E-02  0.494E-02
   8.100  0.484E-01  0.276E-01  0.122E-01  0.603E-02  0.800E-02  0.518E-02  0.800E-02  0.518E-02  0.122E-01  0.603E-02  0.800E-02  0.518E-02
   8.120  0.516E-01  0.284E-01  0.128E-01  0.589E-02  0.863E-02  0.553E-02  0.863E-02  0.553E-02  0.128E-01  0.589E-02  0.863E-02  0.553E-02
   8.140  0.559E-01  0.296E-01  0.138E-01  0.582E-02  0.941E-02  0.600E-02  0.941E-02  0.600E-02  0.138E-01  0.582E-02  0.941E-02  0.600E-02
   8.160  0.612E-01  0.314E-01  0.151E-01  0.583E-02  0.103E-01  0.658E-02  0.103E-01  0.658E-02  0.151E-01  0.583E-02  0.103E-01  0.658E-02
   8.180  0.677E-01  0.337E-01  0.168E-01  0.594E-02  0.114E-01  0.726E-02  0.114E-01  0.726E-02  0.168E-01  0.594E-02  0.114E-01  0.726E-02
   8.200  0.751E-01  0.364E-01  0.188E-01  0.615E-02  0.125E-01  0.802E-02  0.125E-01  0.802E-02  0.188E-01  0.615E-02  0.125E-01  0.802E-02
   8.220  0.834E-01  0.394E-01  0.212E-01  0.645E-02  0.136E-01  0.882E-02  0.136E-01  0.882E-02  0.212E-01  0.645E-02  0.136E-01  0.882E-02
   8.240  0.924E-01  0.426E-01  0.240E-01  0.683E-02  0.148E-01  0.965E-02  0.148E-01  0.965E-02  0.240E-01  0.683E-02  0.148E-01  0.965E-02
   8.260  0.102E+00  0.459E-01  0.269E-01  0.726E-02  0.160E-01  0.105E-01  0.160E-01  0.105E-01  0.269E-01  0.726E-02  0.160E-01  0.105E-01
   8.280  0.112E+00  0.492E-01  0.301E-01  0.773E-02  0.171E-01  0.112E-01  0.171E-01  0.112E-01  0.301E-01  0.773E-02  0.171E-01  0.112E-01
   8.300  0.122E+00  0.523E-01  0.335E-01  0.823E-02  0.182E-01  0.120E-01  0.182E-01  0.120E-01  0.335E-01  0.823E-02  0.182E-01  0.120E-01
   8.320  0.132E+00  0.553E-01  0.370E-01  0.875E-02  0.192E-01  0.126E-01  0.192E-01  0.126E-01  0.370E-01  0.875E-02  0.192E-01  0.126E-01
   8.340  0.142E+00  0.581E-01  0.408E-01  0.930E-02  0.202E-01  0.132E-01  0.202E-01  0.132E-01  0.408E-01  0.930E-02  0.202E-01  0.132E-01
   8.360  0.153E+00  0.608E-01  0.448E-01  0.991E-02  0.212E-01  0.137E-01  0.212E-01  0.137E-01  0.448E-01  0.991E-02  0.212E-01  0.137E-01
   8.380  0.165E+00  0.635E-01  0.492E-01  0.106E-01  0.223E-01  0.141E-01  0.223E-01  0.141E-01  0.492E-01  0.106E-01  0.223E-01  0.141E-01
   8.400  0.178E+00  0.664E-01  0.540E-01  0.114E-01  0.235E-01  0.145E-01  0.235E-01  0.145E-01  0.540E-01  0.114E-01  0.235E-01  0.145E-01
   8.420  0.193E+00  0.696E-01  0.593E-01  0.123E-01  0.247E-01  0.150E-01  0.247E-01  0.150E-01  0.593E-01  0.123E-01  0.247E-01  0.150E-01
   8.440  0.208E+00  0.730E-01  0.651E-01  0.133E-01  0.260E-01  0.154E-01  0.260E-01  0.154E-01  0.651E-01  0.133E-01  0.260E-01  0.154E-01
   8.460  0.224E+00  0.766E-01  0.713E-01  0.145E-01  0.273E-01  0.159E-01  0.273E-01  0.159E-01  0.713E-01  0.145E-01  0.273E-01  0.159E-01
   8.480  0.241E+00  0.804E-01  0.777E-01  0.157E-01  0.285E-01  0.163E-01  0.285E-01  0.163E-01  0.777E-01  0.157E-01  0.285E-01  0.163E-01
   8.500  0.257E+00  0.842E-01  0.841E-01  0.171E-01  0.295E-01  0.167E-01  0.295E-01  0.167E-01  0.841E-01  0.171E-01  0.295E-01  0.167E-01
   8.520  0.272E+00  0.878E-01  0.904E-01  0.185E-01  0.303E-01  0.170E-01  0.303E-01  0.170E-01  0.904E-01  0.185E-01  0.303E-01  0.170E-01
   8.540  0.285E+00  0.913E-01  0.965E-01  0.199E-01  0.307E-01  0.171E-01  0.307E-01  0.171E-01  0.965E-01  0.199E-01  0.307E-01  0.171E-01
   8.560  0.297E+00  0.945E-01  0.102E+00  0.215E-01  0.308E-01  0.172E-01  0.308E-01  0.172E-01  0.102E+00  0.215E-01  0.308E-01  0.172E-01
   8.580  0.308E+00  0.977E-01  0.108E+00  0.231E-01  0.306E-01  0.172E-01  0.306E-01  0.172E-01  0.108E+00  0.231E-01  0.306E-01  0.172E-01
   8.600  0.318E+00  0.101E+00  0.114E+00  0.250E-01  0.302E-01  0.170E-01  0.302E-01  0.170E-01  0.114E+00  0.250E-01  0.302E-01  0.170E-01
   8.620  0.328E+00  0.105E+00  0.120E+00  0.271E-01  0.297E-01  0.169E-01  0.297E-01  0.169E-01  0.120E+00  0.271E-01  0.297E-01  0.169E-01
   8.640  0.340E+00  0.110E+00  0.127E+00  0.296E-01  0.291E-01  0.168E-01  0.291E-01  0.168E-01  0.127E+00  0.296E-01  0.291E-01  0.168E-01
   8.660  0.355E+00  0.116E+00  0.135E+00  0.326E-01  0.286E-01  0.169E-01  0.286E-01  0.169E-01  0.135E+00  0.326E-01  0.286E-01  0.169E-01
   8.680  0.375E+00  0.123E+00  0.145E+00  0.361E-01  0.283E-01  0.170E-01  0.283E-01  0.170E-01  0.145E+00  0.361E-01  0.283E-01  0.170E-01
   8.700  0.399E+00  0.133E+00  0.157E+00  0.404E-01  0.283E-01  0.174E-01  0.283E-01  0.174E-01  0.157E+00  0.404E-01  0.283E-01  0.174E-01
   8.720  0.430E+00  0.145E+00  0.172E+00  0.456E-01  0.286E-01  0.180E-01  0.286E-01  0.180E-01  0.172E+00  0.456E-01  0.286E-01  0.180E-01
   8.740  0.467E+00  0.160E+00  0.190E+00  0.517E-01  0.291E-01  0.188E-01  0.291E-01  0.188E-01  0.190E+00  0.517E-01  0.291E-01  0.188E-01
   8.760  0.511E+00  0.177E+00  0.211E+00  0.591E-01  0.299E-01  0.198E-01  0.299E-01  0.198E-01  0.211E+00  0.591E-01  0.299E-01  0.198E-01
   8.780  0.563E+00  0.198E+00  0.235E+00  0.677E-01  0.309E-01  0.209E-01  0.309E-01  0.209E-01  0.235E+00  0.677E-01  0.309E-01  0.209E-01
   8.800  0.620E+00  0.221E+00  0.262E+00  0.774E-01  0.320E-01  0.221E-01  0.320E-01  0.221E-01  0.262E+00  0.774E-01  0.320E-01  0.221E-01
   8.820  0.683E+00  0.247E+00  0.292E+00  0.883E-01  0.333E-01  0.234E-01  0.333E-01  0.234E-01  0.292E+00  0.883E-01  0.333E-01  0.234E-01
   8.840  0.749E+00  0.274E+00  0.323E+00  0.100E+00  0.346E-01  0.247E-01  0.346E-01  0.247E-01  0.323E+00  0.100E+00  0.346E-01  0.247E-01
   8.860  0.817E+00  0.302E+00  0.355E+00  0.112E+00  0.360E-01  0.259E-01  0.360E-01  0.259E-01  0.355E+00  0.112E+00  0.360E-01  0.259E-01
   8.880  0.884E+00  0.329E+00  0.386E+00  0.124E+00  0.373E-01  0.269E-01  0.373E-01  0.269E-01  0.386E+00  0.124E+00  0.373E-01  0.269E-01
   8.900  0.945E+00  0.354E+00  0.414E+00  0.135E+00  0.386E-01  0.277E-01  0.386E-01  0.277E-01  0.414E+00  0.135E+00  0.386E-01  0.277E-01
   8.920  0.998E+00  0.375E+00  0.439E+00  0.145E+00  0.397E-01  0.282E-01  0.397E-01  0.282E-01  0.439E+00  0.145E+00  0.397E-01  0.282E-01
   8.940  0.104E+01  0.392E+00  0.459E+00  0.153E+00  0.407E-01  0.286E-01  0.407E-01  0.286E-01  0.459E+00  0.153E+00  0.407E-01  0.286E-01
   8.960  0.107E+01  0.404E+00  0.471E+00  0.159E+00  0.414E-01  0.286E-01  0.414E-01  0.286E-01  0.471E+00  0.159E+00  0.414E-01  0.286E-01
   8.980  0.108E+01  0.409E+00  0.476E+00  0.162E+00  0.419E-01  0.285E-01  0.419E-01  0.285E-01  0.476E+00  0.162E+00  0.419E-01  0.285E-01
   9.000  0.107E+01  0.409E+00  0.474E+00  0.162E+00  0.421E-01  0.282E-01  0.421E-01  0.282E-01  0.474E+00  0.162E+00  0.421E-01  0.282E-01
   9.020  0.105E+01  0.403E+00  0.464E+00  0.160E+00  0.420E-01  0.277E-01  0.420E-01  0.277E-01  0.464E+00  0.160E+00  0.420E-01  0.277E-01
   9.040  0.102E+01  0.391E+00  0.448E+00  0.155E+00  0.416E-01  0.271E-01  0.416E-01  0.271E-01  0.448E+00  0.155E+00  0.416E-01  0.271E-01
   9.060  0.976E+00  0.376E+00  0.427E+00  0.148E+00  0.409E-01  0.265E-01  0.409E-01  0.265E-01  0.427E+00  0.148E+00  0.409E-01  0.265E-01
   9.080  0.923E+00  0.357E+00  0.402E+00  0.140E+00  0.399E-01  0.257E-01  0.399E-01  0.257E-01  0.402E+00  0.140E+00  0.399E-01  0.257E-01
   9.100  0.864E+00  0.336E+00  0.374E+00  0.131E+00  0.387E-01  0.249E-01  0.387E-01  0.249E-01  0.374E+00  0.131E+00  0.387E-01  0.249E-01
   9.120  0.803E+00  0.314E+00  0.345E+00  0.121E+00  0.373E-01  0.240E-01  0.373E-01  0.240E-01  0.345E+00  0.121E+00  0.373E-01  0.240E-01
   9.140  0.741E+00  0.292E+00  0.317E+00  0.111E+00  0.359E-01  0.231E-01  0.359E-01  0.231E-01  0.317E+00  0.111E+00  0.359E-01  0.231E-01
   9.160  0.681E+00  0.270E+00  0.289E+00  0.102E+00  0.345E-01  0.222E-01  0.345E-01  0.222E-01  0.289E+00  0.102E+00  0.345E-01  0.222E-01
   9.180  0.624E+00  0.250E+00  0.262E+00  0.931E-01  0.332E-01  0.214E-01  0.332E-01  0.214E-01  0.262E+00  0.931E-01  0.332E-01  0.214E-01
   9.200  0.571E+00  0.233E+00  0.237E+00  0.853E-01  0.322E-01  0.207E-01  0.322E-01  0.207E-01  0.237E+00  0.853E-01  0.322E-01  0.207E-01
   9.220  0.523E+00  0.218E+00  0.214E+00  0.787E-01  0.314E-01  0.201E-01  0.314E-01  0.201E-01  0.214E+00  0.787E-01  0.314E-01  0.201E-01
   9.240  0.480E+00  0.206E+00  0.194E+00  0.734E-01  0.310E-01  0.198E-01  0.310E-01  0.198E-01  0.194E+00  0.734E-01  0.310E-01  0.198E-01
   9.260  0.442E+00  0.197E+00  0.175E+00  0.692E-01  0.309E-01  0.197E-01  0.309E-01  0.197E-01  0.175E+00  0.692E-01  0.309E-01  0.197E-01
   9.280  0.409E+00  0.192E+00  0.158E+00  0.662E-01  0.310E-01  0.197E-01  0.310E-01  0.197E-01  0.158E+00  0.662E-01  0.310E-01  0.197E-01
   9.300  0.380E+00  0.188E+00  0.143E+00  0.642E-01  0.312E-01  0.199E-01  0.312E-01  0.199E-01  0.143E+00  0.642E-01  0.312E-01  0.199E-01
   9.320  0.354E+00  0.187E+00  0.130E+00  0.631E-01  0.315E-01  0.202E-01  0.315E-01  0.202E-01  0.130E+00  0.631E-01  0.315E-01  0.202E-01
   9.340  0.331E+00  0.187E+00  0.118E+00  0.628E-01  0.317E-01  0.205E-01  0.317E-01  0.205E-01  0.118E+00  0.628E-01  0.317E-01  0.205E-01
   9.360  0.310E+00  0.189E+00  0.107E+00  0.631E-01  0.318E-01  0.208E-01  0.318E-01  0.208E-01  0.107E+00  0.631E-01  0.318E-01  0.208E-01
   9.380  0.292E+00  0.191E+00  0.984E-01  0.639E-01  0.317E-01  0.209E-01  0.317E-01  0.209E-01  0.984E-01  0.639E-01  0.317E-01  0.209E-01
   9.400  0.275E+00  0.193E+00  0.905E-01  0.649E-01  0.314E-01  0.210E-01  0.314E-01  0.210E-01  0.905E-01  0.649E-01  0.314E-01  0.210E-01
   9.420  0.260E+00  0.194E+00  0.836E-01  0.659E-01  0.310E-01  0.209E-01  0.310E-01  0.209E-01  0.836E-01  0.659E-01  0.310E-01  0.209E-01
   9.440  0.246E+00  0.196E+00  0.774E-01  0.669E-01  0.304E-01  0.207E-01  0.304E-01  0.207E-01  0.774E-01  0.669E-01  0.304E-01  0.207E-01
   9.460  0.233E+00  0.196E+00  0.717E-01  0.675E-01  0.298E-01  0.204E-01  0.298E-01  0.204E-01  0.717E-01  0.675E-01  0.298E-01  0.204E-01
   9.480  0.220E+00  0.196E+00  0.663E-01  0.679E-01  0.292E-01  0.200E-01  0.292E-01  0.200E-01  0.663E-01  0.679E-01  0.292E-01  0.200E-01
   9.500  0.208E+00  0.195E+00  0.612E-01  0.678E-01  0.285E-01  0.196E-01  0.285E-01  0.196E-01  0.612E-01  0.678E-01  0.285E-01  0.196E-01
   9.520  0.196E+00  0.193E+00  0.561E-01  0.675E-01  0.280E-01  0.193E-01  0.280E-01  0.193E-01  0.561E-01  0.675E-01  0.280E-01  0.193E-01
   9.540  0.185E+00  0.191E+00  0.513E-01  0.670E-01  0.275E-01  0.189E-01  0.275E-01  0.189E-01  0.513E-01  0.670E-01  0.275E-01  0.189E-01
   9.560  0.175E+00  0.189E+00  0.468E-01  0.666E-01  0.272E-01  0.187E-01  0.272E-01  0.187E-01  0.468E-01  0.666E-01  0.272E-01  0.187E-01
   9.580  0.167E+00  0.188E+00  0.427E-01  0.664E-01  0.271E-01  0.186E-01  0.271E-01  0.186E-01  0.427E-01  0.664E-01  0.271E-01  0.186E-01
   9.600  0.160E+00  0.189E+00  0.393E-01  0.665E-01  0.272E-01  0.186E-01  0.272E-01  0.186E-01  0.393E-01  0.665E-01  0.272E-01  0.186E-01
   9.620  0.156E+00  0.190E+00  0.365E-01  0.669E-01  0.276E-01  0.188E-01  0.276E-01  0.188E-01  0.365E-01  0.669E-01  0.276E-01  0.188E-01
   9.640  0.153E+00  0.192E+00  0.345E-01  0.676E-01  0.281E-01  0.191E-01  0.281E-01  0.191E-01  0.345E-01  0.676E-01  0.281E-01  0.191E-01
   9.660  0.153E+00  0.195E+00  0.331E-01  0.685E-01  0.289E-01  0.195E-01  0.289E-01  0.195E-01  0.331E-01  0.685E-01  0.289E-01  0.195E-01
   9.680  0.154E+00  0.198E+00  0.324E-01  0.693E-01  0.297E-01  0.200E-01  0.297E-01  0.200E-01  0.324E-01  0.693E-01  0.297E-01  0.200E-01
   9.700  0.156E+00  0.201E+00  0.321E-01  0.698E-01  0.306E-01  0.205E-01  0.306E-01  0.205E-01  0.321E-01  0.698E-01  0.306E-01  0.205E-01
   9.720  0.159E+00  0.203E+00  0.322E-01  0.699E-01  0.315E-01  0.209E-01  0.315E-01  0.209E-01  0.322E-01  0.699E-01  0.315E-01  0.209E-01
   9.740  0.162E+00  0.203E+00  0.324E-01  0.696E-01  0.323E-01  0.213E-01  0.323E-01  0.213E-01  0.324E-01  0.696E-01  0.323E-01  0.213E-01
   9.760  0.164E+00  0.202E+00  0.328E-01  0.688E-01  0.330E-01  0.215E-01  0.330E-01  0.215E-01  0.328E-01  0.688E-01  0.330E-01  0.215E-01
   9.780  0.166E+00  0.200E+00  0.331E-01  0.676E-01  0.334E-01  0.216E-01  0.334E-01  0.216E-01  0.331E-01  0.676E-01  0.334E-01  0.216E-01
   9.800  0.167E+00  0.197E+00  0.333E-01  0.661E-01  0.336E-01  0.216E-01  0.336E-01  0.216E-01  0.333E-01  0.661E-01  0.336E-01  0.216E-01
   9.820  0.168E+00  0.193E+00  0.334E-01  0.644E-01  0.336E-01  0.214E-01  0.336E-01  0.214E-01  0.334E-01  0.644E-01  0.336E-01  0.214E-01
   9.840  0.167E+00  0.188E+00  0.333E-01  0.625E-01  0.333E-01  0.211E-01  0.333E-01  0.211E-01  0.333E-01  0.625E-01  0.333E-01  0.211E-01
   9.860  0.164E+00  0.183E+00  0.330E-01  0.604E-01  0.328E-01  0.207E-01  0.328E-01  0.207E-01  0.330E-01  0.604E-01  0.328E-01  0.207E-01
   9.880  0.161E+00  0.177E+00  0.324E-01  0.582E-01  0.320E-01  0.202E-01  0.320E-01  0.202E-01  0.324E-01  0.582E-01  0.320E-01  0.202E-01
   9.900  0.156E+00  0.170E+00  0.315E-01  0.559E-01  0.311E-01  0.196E-01  0.311E-01  0.196E-01  0.315E-01  0.559E-01  0.311E-01  0.196E-01
   9.920  0.151E+00  0.164E+00  0.303E-01  0.534E-01  0.301E-01  0.189E-01  0.301E-01  0.189E-01  0.303E-01  0.534E-01  0.301E-01  0.189E-01
   9.940  0.145E+00  0.156E+00  0.289E-01  0.508E-01  0.290E-01  0.183E-01  0.290E-01  0.183E-01  0.289E-01  0.508E-01  0.290E-01  0.183E-01
   9.960  0.138E+00  0.149E+00  0.274E-01  0.482E-01  0.279E-01  0.176E-01  0.279E-01  0.176E-01  0.274E-01  0.482E-01  0.279E-01  0.176E-01
   9.980  0.132E+00  0.142E+00  0.259E-01  0.454E-01  0.268E-01  0.169E-01  0.268E-01  0.169E-01  0.259E-01  0.454E-01  0.268E-01  0.169E-01
  10.000  0.126E+00  0.134E+00  0.244E-01  0.427E-01  0.259E-01  0.163E-01  0.259E-01  0.163E-01  0.244E-01  0.427E-01  0.259E-01  0.163E-01
  10.020  0.121E+00  0.127E+00  0.230E-01  0.400E-01  0.250E-01  0.158E-01  0.250E-01  0.158E-01  0.230E-01  0.400E-01  0.250E-01  0.158E-01
  10.040  0.117E+00  0.121E+00  0.218E-01  0.375E-01  0.243E-01  0.153E-01  0.243E-01  0.153E-01  0.218E-01  0.375E-01  0.243E-01  0.153E-01
  10.060  0.113E+00  0.115E+00  0.208E-01  0.350E-01  0.238E-01  0.149E-01  0.238E-01  0.149E-01  0.208E-01  0.350E-01  0.238E-01  0.149E-01
  10.080  0.110E+00  0.109E+00  0.199E-01  0.327E-01  0.233E-01  0.144E-01  0.233E-01  0.144E-01  0.199E-01  0.327E-01  0.233E-01  0.144E-01
  10.100  0.107E+00  0.103E+00  0.190E-01  0.306E-01  0.229E-01  0.141E-01  0.229E-01  0.141E-01  0.190E-01  0.306E-01  0.229E-01  0.141E-01
  10.120  0.104E+00  0.980E-01  0.182E-01  0.285E-01  0.225E-01  0.137E-01  0.225E-01  0.137E-01  0.182E-01  0.285E-01  0.225E-01  0.137E-01
  10.140  0.101E+00  0.929E-01  0.174E-01  0.264E-01  0.222E-01  0.133E-01  0.222E-01  0.133E-01  0.174E-01  0.264E-01  0.222E-01  0.133E-01
  10.160  0.985E-01  0.880E-01  0.166E-01  0.245E-01  0.218E-01  0.130E-01  0.218E-01  0.130E-01  0.166E-01  0.245E-01  0.218E-01  0.130E-01
  10.180  0.957E-01  0.833E-01  0.158E-01  0.227E-01  0.214E-01  0.127E-01  0.214E-01  0.127E-01  0.158E-01  0.227E-01  0.214E-01  0.127E-01
  10.200  0.928E-01  0.789E-01  0.150E-01  0.210E-01  0.210E-01  0.123E-01  0.210E-01  0.123E-01  0.150E-01  0.210E-01  0.210E-01  0.123E-01
  10.220  0.901E-01  0.750E-01  0.142E-01  0.194E-01  0.206E-01  0.121E-01  0.206E-01  0.121E-01  0.142E-01  0.194E-01  0.206E-01  0.121E-01
  10.240  0.877E-01  0.716E-01  0.135E-01  0.181E-01  0.202E-01  0.118E-01  0.202E-01  0.118E-01  0.135E-01  0.181E-01  0.202E-01  0.118E-01
  10.260  0.855E-01  0.686E-01  0.130E-01  0.170E-01  0.198E-01  0.116E-01  0.198E-01  0.116E-01  0.130E-01  0.170E-01  0.198E-01  0.116E-01
  10.280  0.835E-01  0.661E-01  0.126E-01  0.161E-01  0.195E-01  0.113E-01  0.195E-01  0.113E-01  0.126E-01  0.161E-01  0.195E-01  0.113E-01
  10.300  0.816E-01  0.638E-01  0.123E-01  0.154E-01  0.190E-01  0.110E-01  0.190E-01  0.110E-01  0.123E-01  0.154E-01  0.190E-01  0.110E-01
  10.320  0.795E-01  0.616E-01  0.121E-01  0.148E-01  0.184E-01  0.107E-01  0.184E-01  0.107E-01  0.121E-01  0.148E-01  0.184E-01  0.107E-01
  10.340  0.772E-01  0.594E-01  0.120E-01  0.143E-01  0.178E-01  0.103E-01  0.178E-01  0.103E-01  0.120E-01  0.143E-01  0.178E-01  0.103E-01
  10.360  0.745E-01  0.569E-01  0.119E-01  0.138E-01  0.169E-01  0.975E-02  0.169E-01  0.975E-02  0.119E-01  0.138E-01  0.169E-01  0.975E-02
  10.380  0.716E-01  0.543E-01  0.118E-01  0.134E-01  0.160E-01  0.917E-02  0.160E-01  0.917E-02  0.118E-01  0.134E-01  0.160E-01  0.917E-02
  10.400  0.685E-01  0.515E-01  0.117E-01  0.129E-01  0.150E-01  0.854E-02  0.150E-01  0.854E-02  0.117E-01  0.129E-01  0.150E-01  0.854E-02
  10.420  0.654E-01  0.485E-01  0.116E-01  0.124E-01  0.141E-01  0.791E-02  0.141E-01  0.791E-02  0.116E-01  0.124E-01  0.141E-01  0.791E-02
  10.440  0.624E-01  0.457E-01  0.114E-01  0.119E-01  0.132E-01  0.731E-02  0.132E-01  0.731E-02  0.114E-01  0.119E-01  0.132E-01  0.731E-02
  10.460  0.597E-01  0.429E-01  0.111E-01  0.113E-01  0.125E-01  0.677E-02  0.125E-01  0.677E-02  0.111E-01  0.113E-01  0.125E-01  0.677E-02
  10.480  0.573E-01  0.404E-01  0.108E-01  0.107E-01  0.119E-01  0.633E-02  0.119E-01  0.633E-02  0.108E-01  0.107E-01  0.119E-01  0.633E-02
  10.500  0.551E-01  0.381E-01  0.104E-01  0.101E-01  0.114E-01  0.597E-02  0.114E-01  0.597E-02  0.104E-01  0.101E-01  0.114E-01  0.597E-02
  10.520  0.531E-01  0.360E-01  0.992E-02  0.946E-02  0.111E-01  0.570E-02  0.111E-01  0.570E-02  0.992E-02  0.946E-02  0.111E-01  0.570E-02
  10.540  0.512E-01  0.342E-01  0.936E-02  0.884E-02  0.108E-01  0.549E-02  0.108E-01  0.549E-02  0.936E-02  0.884E-02  0.108E-01  0.549E-02
  10.560  0.494E-01  0.325E-01  0.875E-02  0.824E-02  0.106E-01  0.534E-02  0.106E-01  0.534E-02  0.875E-02  0.824E-02  0.106E-01  0.534E-02
  10.580  0.475E-01  0.310E-01  0.811E-02  0.767E-02  0.104E-01  0.522E-02  0.104E-01  0.522E-02  0.811E-02  0.767E-02  0.104E-01  0.522E-02
  10.600  0.457E-01  0.297E-01  0.748E-02  0.714E-02  0.103E-01  0.512E-02  0.103E-01  0.512E-02  0.748E-02  0.714E-02  0.103E-01  0.512E-02
  10.620  0.439E-01  0.284E-01  0.687E-02  0.666E-02  0.101E-01  0.503E-02  0.101E-01  0.503E-02  0.687E-02  0.666E-02  0.101E-01  0.503E-02
  10.640  0.422E-01  0.272E-01  0.630E-02  0.620E-02  0.987E-02  0.493E-02  0.987E-02  0.493E-02  0.630E-02  0.620E-02  0.987E-02  0.493E-02
  10.660  0.404E-01  0.260E-01  0.576E-02  0.577E-02  0.964E-02  0.481E-02  0.964E-02  0.481E-02  0.576E-02  0.577E-02  0.964E-02  0.481E-02
  10.680  0.386E-01  0.247E-01  0.525E-02  0.534E-02  0.937E-02  0.467E-02  0.937E-02  0.467E-02  0.525E-02  0.534E-02  0.937E-02  0.467E-02
  10.700  0.367E-01  0.233E-01  0.477E-02  0.491E-02  0.905E-02  0.450E-02  0.905E-02  0.450E-02  0.477E-02  0.491E-02  0.905E-02  0.450E-02
  10.720  0.346E-01  0.218E-01  0.431E-02  0.446E-02  0.868E-02  0.430E-02  0.868E-02  0.430E-02  0.431E-02  0.446E-02  0.868E-02  0.430E-02
  10.740  0.325E-01  0.202E-01  0.386E-02  0.401E-02  0.825E-02  0.407E-02  0.825E-02  0.407E-02  0.386E-02  0.401E-02  0.825E-02  0.407E-02
  10.760  0.302E-01  0.185E-01  0.344E-02  0.356E-02  0.776E-02  0.381E-02  0.776E-02  0.381E-02  0.344E-02  0.356E-02  0.776E-02  0.381E-02
  10.780  0.278E-01  0.169E-01  0.305E-02  0.314E-02  0.725E-02  0.353E-02  0.725E-02  0.353E-02  0.305E-02  0.314E-02  0.725E-02  0.353E-02
  10.800  0.256E-01  0.153E-01  0.273E-02  0.276E-02  0.671E-02  0.324E-02  0.671E-02  0.324E-02  0.273E-02  0.276E-02  0.671E-02  0.324E-02
  10.820  0.235E-01  0.138E-01  0.248E-02  0.246E-02  0.617E-02  0.296E-02  0.617E-02  0.296E-02  0.248E-02  0.246E-02  0.617E-02  0.296E-02
  10.840  0.216E-01  0.125E-01  0.231E-02  0.224E-02  0.566E-02  0.269E-02  0.566E-02  0.269E-02  0.231E-02  0.224E-02  0.566E-02  0.269E-02
  10.860  0.201E-01  0.116E-01  0.223E-02  0.211E-02  0.520E-02  0.245E-02  0.520E-02  0.245E-02  0.223E-02  0.211E-02  0.520E-02  0.245E-02
  10.880  0.189E-01  0.108E-01  0.224E-02  0.206E-02  0.481E-02  0.224E-02  0.481E-02  0.224E-02  0.224E-02  0.206E-02  0.481E-02  0.224E-02
  10.900  0.181E-01  0.104E-01  0.230E-02  0.207E-02  0.451E-02  0.207E-02  0.451E-02  0.207E-02  0.230E-02  0.207E-02  0.451E-02  0.207E-02
  10.920  0.177E-01  0.101E-01  0.240E-02  0.213E-02  0.431E-02  0.196E-02  0.431E-02  0.196E-02  0.240E-02  0.213E-02  0.431E-02  0.196E-02
  10.940  0.178E-01  0.101E-01  0.250E-02  0.220E-02  0.425E-02  0.190E-02  0.425E-02  0.190E-02  0.250E-02  0.220E-02  0.425E-02  0.190E-02
  10.960  0.182E-01  0.102E-01  0.258E-02  0.226E-02  0.434E-02  0.191E-02  0.434E-02  0.191E-02  0.258E-02  0.226E-02  0.434E-02  0.191E-02
  10.980  0.190E-01  0.105E-01  0.262E-02  0.228E-02  0.459E-02  0.199E-02  0.459E-02  0.199E-02  0.262E-02  0.228E-02  0.459E-02  0.199E-02
  11.000  0.203E-01  0.109E-01  0.259E-02  0.224E-02  0.502E-02  0.214E-02  0.502E-02  0.214E-02  0.259E-02  0.224E-02  0.502E-02  0.214E-02
  11.020  0.220E-01  0.114E-01  0.250E-02  0.215E-02  0.565E-02  0.238E-02  0.565E-02  0.238E-02  0.250E-02  0.215E-02  0.565E-02  0.238E-02
  11.040  0.241E-01  0.121E-01  0.236E-02  0.201E-02  0.648E-02  0.269E-02  0.648E-02  0.269E-02  0.236E-02  0.201E-02  0.648E-02  0.269E-02
  11.060  0.268E-01  0.129E-01  0.216E-02  0.183E-02  0.749E-02  0.308E-02  0.749E-02  0.308E-02  0.216E-02  0.183E-02  0.749E-02  0.308E-02
  11.080  0.299E-01  0.138E-01  0.194E-02  0.162E-02  0.868E-02  0.353E-02  0.868E-02  0.353E-02  0.194E-02  0.162E-02  0.868E-02  0.353E-02
  11.100  0.335E-01  0.149E-01  0.171E-02  0.140E-02  0.100E-01  0.404E-02  0.100E-01  0.404E-02  0.171E-02  0.140E-02  0.100E-01  0.404E-02
  11.120  0.373E-01  0.161E-01  0.149E-02  0.119E-02  0.114E-01  0.458E-02  0.114E-01  0.458E-02  0.149E-02  0.119E-02  0.114E-01  0.458E-02
  11.140  0.414E-01  0.174E-01  0.129E-02  0.992E-03  0.129E-01  0.514E-02  0.129E-01  0.514E-02  0.129E-02  0.992E-03  0.129E-01  0.514E-02
  11.160  0.457E-01  0.188E-01  0.111E-02  0.822E-03  0.145E-01  0.571E-02  0.145E-01  0.571E-02  0.111E-02  0.822E-03  0.145E-01  0.571E-02
  11.180  0.501E-01  0.202E-01  0.975E-03  0.681E-03  0.161E-01  0.627E-02  0.161E-01  0.627E-02  0.975E-03  0.681E-03  0.161E-01  0.627E-02
  11.200  0.548E-01  0.216E-01  0.871E-03  0.569E-03  0.177E-01  0.683E-02  0.177E-01  0.683E-02  0.871E-03  0.569E-03  0.177E-01  0.683E-02
  11.220  0.598E-01  0.232E-01  0.799E-03  0.486E-03  0.194E-01  0.741E-02  0.194E-01  0.741E-02  0.799E-03  0.486E-03  0.194E-01  0.741E-02
  11.240  0.653E-01  0.249E-01  0.756E-03  0.426E-03  0.213E-01  0.801E-02  0.213E-01  0.801E-02  0.756E-03  0.426E-03  0.213E-01  0.801E-02
  11.260  0.716E-01  0.268E-01  0.738E-03  0.386E-03  0.234E-01  0.869E-02  0.234E-01  0.869E-02  0.738E-03  0.386E-03  0.234E-01  0.869E-02
  11.280  0.791E-01  0.291E-01  0.740E-03  0.361E-03  0.259E-01  0.947E-02  0.259E-01  0.947E-02  0.740E-03  0.361E-03  0.259E-01  0.947E-02
  11.300  0.881E-01  0.319E-01  0.757E-03  0.346E-03  0.288E-01  0.104E-01  0.288E-01  0.104E-01  0.757E-03  0.346E-03  0.288E-01  0.104E-01
  11.320  0.986E-01  0.351E-01  0.787E-03  0.339E-03  0.323E-01  0.115E-01  0.323E-01  0.115E-01  0.787E-03  0.339E-03  0.323E-01  0.115E-01
  11.340  0.111E+00  0.388E-01  0.827E-03  0.338E-03  0.364E-01  0.127E-01  0.364E-01  0.127E-01  0.827E-03  0.338E-03  0.364E-01  0.127E-01
  11.360  0.125E+00  0.429E-01  0.878E-03  0.341E-03  0.409E-01  0.141E-01  0.409E-01  0.141E-01  0.878E-03  0.341E-03  0.409E-01  0.141E-01
  11.380  0.140E+00  0.475E-01  0.942E-03  0.348E-03  0.460E-01  0.156E-01  0.460E-01  0.156E-01  0.942E-03  0.348E-03  0.460E-01  0.156E-01
  11.400  0.156E+00  0.523E-01  0.102E-02  0.360E-03  0.514E-01  0.172E-01  0.514E-01  0.172E-01  0.102E-02  0.360E-03  0.514E-01  0.172E-01
  11.420  0.173E+00  0.572E-01  0.112E-02  0.375E-03  0.570E-01  0.188E-01  0.570E-01  0.188E-01  0.112E-02  0.375E-03  0.570E-01  0.188E-01
  11.440  0.191E+00  0.620E-01  0.124E-02  0.392E-03  0.629E-01  0.204E-01  0.629E-01  0.204E-01  0.124E-02  0.392E-03  0.629E-01  0.204E-01
  11.460  0.209E+00  0.667E-01  0.140E-02  0.412E-03  0.688E-01  0.220E-01  0.688E-01  0.220E-01  0.140E-02  0.412E-03  0.688E-01  0.220E-01
  11.480  0.227E+00  0.712E-01  0.159E-02  0.432E-03  0.748E-01  0.234E-01  0.748E-01  0.234E-01  0.159E-02  0.432E-03  0.748E-01  0.234E-01
  11.500  0.246E+00  0.753E-01  0.181E-02  0.453E-03  0.807E-01  0.248E-01  0.807E-01  0.248E-01  0.181E-02  0.453E-03  0.807E-01  0.248E-01
  11.520  0.264E+00  0.791E-01  0.209E-02  0.473E-03  0.867E-01  0.261E-01  0.867E-01  0.261E-01  0.209E-02  0.473E-03  0.867E-01  0.261E-01
  11.540  0.283E+00  0.826E-01  0.242E-02  0.493E-03  0.927E-01  0.272E-01  0.927E-01  0.272E-01  0.242E-02  0.493E-03  0.927E-01  0.272E-01
  11.560  0.302E+00  0.857E-01  0.280E-02  0.514E-03  0.988E-01  0.282E-01  0.988E-01  0.282E-01  0.280E-02  0.514E-03  0.988E-01  0.282E-01
  11.580  0.322E+00  0.886E-01  0.325E-02  0.540E-03  0.105E+00  0.292E-01  0.105E+00  0.292E-01  0.325E-02  0.540E-03  0.105E+00  0.292E-01
  11.600  0.343E+00  0.913E-01  0.378E-02  0.573E-03  0.112E+00  0.301E-01  0.112E+00  0.301E-01  0.378E-02  0.573E-03  0.112E+00  0.301E-01
  11.620  0.366E+00  0.940E-01  0.441E-02  0.619E-03  0.119E+00  0.309E-01  0.119E+00  0.309E-01  0.441E-02  0.619E-03  0.119E+00  0.309E-01
  11.640  0.392E+00  0.968E-01  0.517E-02  0.685E-03  0.127E+00  0.318E-01  0.127E+00  0.318E-01  0.517E-02  0.685E-03  0.127E+00  0.318E-01
  11.660  0.422E+00  0.999E-01  0.608E-02  0.776E-03  0.137E+00  0.328E-01  0.137E+00  0.328E-01  0.608E-02  0.776E-03  0.137E+00  0.328E-01
  11.680  0.458E+00  0.103E+00  0.718E-02  0.900E-03  0.148E+00  0.339E-01  0.148E+00  0.339E-01  0.718E-02  0.900E-03  0.148E+00  0.339E-01
  11.700  0.499E+00  0.108E+00  0.849E-02  0.107E-02  0.161E+00  0.352E-01  0.161E+00  0.352E-01  0.849E-02  0.107E-02  0.161E+00  0.352E-01
  11.720  0.549E+00  0.113E+00  0.100E-01  0.128E-02  0.176E+00  0.368E-01  0.176E+00  0.368E-01  0.100E-01  0.128E-02  0.176E+00  0.368E-01
  11.740  0.606E+00  0.119E+00  0.119E-01  0.155E-02  0.194E+00  0.387E-01  0.194E+00  0.387E-01  0.119E-01  0.155E-02  0.194E+00  0.387E-01
  11.760  0.673E+00  0.126E+00  0.140E-01  0.187E-02  0.215E+00  0.409E-01  0.215E+00  0.409E-01  0.140E-01  0.187E-02  0.215E+00  0.409E-01
  11.780  0.748E+00  0.134E+00  0.165E-01  0.225E-02  0.238E+00  0.432E-01  0.238E+00  0.432E-01  0.165E-01  0.225E-02  0.238E+00  0.432E-01
  11.800  0.831E+00  0.142E+00  0.193E-01  0.268E-02  0.264E+00  0.457E-01  0.264E+00  0.457E-01  0.193E-01  0.268E-02  0.264E+00  0.457E-01
  11.820  0.921E+00  0.151E+00  0.225E-01  0.317E-02  0.292E+00  0.482E-01  0.292E+00  0.482E-01  0.225E-01  0.317E-02  0.292E+00  0.482E-01
  11.840  0.102E+01  0.159E+00  0.260E-01  0.370E-02  0.322E+00  0.506E-01  0.322E+00  0.506E-01  0.260E-01  0.370E-02  0.322E+00  0.506E-01
  11.860  0.112E+01  0.167E+00  0.299E-01  0.426E-02  0.353E+00  0.529E-01  0.353E+00  0.529E-01  0.299E-01  0.426E-02  0.353E+00  0.529E-01
  11.880  0.122E+01  0.174E+00  0.339E-01  0.486E-02  0.384E+00  0.548E-01  0.384E+00  0.548E-01  0.339E-01  0.486E-02  0.384E+00  0.548E-01
  11.900  0.132E+01  0.180E+00  0.381E-01  0.549E-02  0.414E+00  0.564E-01  0.414E+00  0.564E-01  0.381E-01  0.549E-02  0.414E+00  0.564E-01
  11.920  0.141E+01  0.185E+00  0.423E-01  0.614E-02  0.443E+00  0.575E-01  0.443E+00  0.575E-01  0.423E-01  0.614E-02  0.443E+00  0.575E-01
  11.940  0.150E+01  0.188E+00  0.463E-01  0.681E-02  0.469E+00  0.580E-01  0.469E+00  0.580E-01  0.463E-01  0.681E-02  0.469E+00  0.580E-01
  11.960  0.157E+01  0.189E+00  0.498E-01  0.749E-02  0.490E+00  0.581E-01  0.490E+00  0.581E-01  0.498E-01  0.749E-02  0.490E+00  0.581E-01
  11.980  0.163E+01  0.189E+00  0.528E-01  0.820E-02  0.508E+00  0.576E-01  0.508E+00  0.576E-01  0.528E-01  0.820E-02  0.508E+00  0.576E-01
  12.000  0.167E+01  0.188E+00  0.551E-01  0.893E-02  0.520E+00  0.567E-01  0.520E+00  0.567E-01  0.551E-01  0.893E-02  0.520E+00  0.567E-01
  12.020  0.170E+01  0.186E+00  0.565E-01  0.969E-02  0.527E+00  0.555E-01  0.527E+00  0.555E-01  0.565E-01  0.969E-02  0.527E+00  0.555E-01
  12.040  0.171E+01  0.183E+00  0.570E-01  0.105E-01  0.531E+00  0.540E-01  0.531E+00  0.540E-01  0.570E-01  0.105E-01  0.531E+00  0.540E-01
  12.060  0.171E+01  0.180E+00  0.568E-01  0.113E-01  0.531E+00  0.526E-01  0.531E+00  0.526E-01  0.568E-01  0.113E-01  0.531E+00  0.526E-01
  12.080  0.170E+01  0.178E+00  0.559E-01  0.122E-01  0.528E+00  0.512E-01  0.528E+00  0.512E-01  0.559E-01  0.122E-01  0.528E+00  0.512E-01
  12.100  0.169E+01  0.177E+00  0.546E-01  0.132E-01  0.525E+00  0.501E-01  0.525E+00  0.501E-01  0.546E-01  0.132E-01  0.525E+00  0.501E-01
  12.120  0.167E+01  0.176E+00  0.532E-01  0.142E-01  0.523E+00  0.493E-01  0.523E+00  0.493E-01  0.532E-01  0.142E-01  0.523E+00  0.493E-01
  12.140  0.167E+01  0.177E+00  0.519E-01  0.152E-01  0.521E+00  0.488E-01  0.521E+00  0.488E-01  0.519E-01  0.152E-01  0.521E+00  0.488E-01
  12.160  0.166E+01  0.178E+00  0.510E-01  0.162E-01  0.520E+00  0.486E-01  0.520E+00  0.486E-01  0.510E-01  0.162E-01  0.520E+00  0.486E-01
  12.180  0.166E+01  0.181E+00  0.508E-01  0.173E-01  0.521E+00  0.487E-01  0.521E+00  0.487E-01  0.508E-01  0.173E-01  0.521E+00  0.487E-01
  12.200  0.167E+01  0.184E+00  0.516E-01  0.185E-01  0.523E+00  0.489E-01  0.523E+00  0.489E-01  0.516E-01  0.185E-01  0.523E+00  0.489E-01
  12.220  0.169E+01  0.187E+00  0.537E-01  0.197E-01  0.528E+00  0.492E-01  0.528E+00  0.492E-01  0.537E-01  0.197E-01  0.528E+00  0.492E-01
  12.240  0.172E+01  0.191E+00  0.575E-01  0.212E-01  0.535E+00  0.496E-01  0.535E+00  0.496E-01  0.575E-01  0.212E-01  0.535E+00  0.496E-01
  12.260  0.177E+01  0.196E+00  0.636E-01  0.229E-01  0.548E+00  0.500E-01  0.548E+00  0.500E-01  0.636E-01  0.229E-01  0.548E+00  0.500E-01
  12.280  0.184E+01  0.202E+00  0.725E-01  0.251E-01  0.566E+00  0.506E-01  0.566E+00  0.506E-01  0.725E-01  0.251E-01  0.566E+00  0.506E-01
  12.300  0.194E+01  0.209E+00  0.847E-01  0.277E-01  0.591E+00  0.514E-01  0.591E+00  0.514E-01  0.847E-01  0.277E-01  0.591E+00  0.514E-01
  12.320  0.208E+01  0.219E+00  0.101E+00  0.310E-01  0.626E+00  0.524E-01  0.626E+00  0.524E-01  0.101E+00  0.310E-01  0.626E+00  0.524E-01
  12.340  0.225E+01  0.231E+00  0.121E+00  0.349E-01  0.670E+00  0.538E-01  0.670E+00  0.538E-01  0.121E+00  0.349E-01  0.670E+00  0.538E-01
  12.360  0.246E+01  0.245E+00  0.146E+00  0.394E-01  0.723E+00  0.555E-01  0.723E+00  0.555E-01  0.146E+00  0.394E-01  0.723E+00  0.555E-01
  12.380  0.270E+01  0.262E+00  0.175E+00  0.446E-01  0.785E+00  0.577E-01  0.785E+00  0.577E-01  0.175E+00  0.446E-01  0.785E+00  0.577E-01
  12.400  0.297E+01  0.281E+00  0.207E+00  0.501E-01  0.852E+00  0.602E-01  0.852E+00  0.602E-01  0.207E+00  0.501E-01  0.852E+00  0.602E-01
  12.420  0.324E+01  0.301E+00  0.241E+00  0.559E-01  0.920E+00  0.630E-01  0.920E+00  0.630E-01  0.241E+00  0.559E-01  0.920E+00  0.630E-01
  12.440  0.351E+01  0.321E+00  0.276E+00  0.615E-01  0.987E+00  0.661E-01  0.987E+00  0.661E-01  0.276E+00  0.615E-01  0.987E+00  0.661E-01
  12.460  0.376E+01  0.342E+00  0.310E+00  0.669E-01  0.105E+01  0.693E-01  0.105E+01  0.693E-01  0.310E+00  0.669E-01  0.105E+01  0.693E-01
  12.480  0.397E+01  0.361E+00  0.342E+00  0.716E-01  0.109E+01  0.727E-01  0.109E+01  0.727E-01  0.342E+00  0.716E-01  0.109E+01  0.727E-01
  12.500  0.412E+01  0.379E+00  0.369E+00  0.755E-01  0.113E+01  0.761E-01  0.113E+01  0.761E-01  0.369E+00  0.755E-01  0.113E+01  0.761E-01
  12.520  0.422E+01  0.396E+00  0.391E+00  0.786E-01  0.115E+01  0.797E-01  0.115E+01  0.797E-01  0.391E+00  0.786E-01  0.115E+01  0.797E-01
  12.540  0.425E+01  0.411E+00  0.407E+00  0.806E-01  0.115E+01  0.834E-01  0.115E+01  0.834E-01  0.407E+00  0.806E-01  0.115E+01  0.834E-01
  12.560  0.422E+01  0.425E+00  0.416E+00  0.819E-01  0.113E+01  0.871E-01  0.113E+01  0.871E-01  0.416E+00  0.819E-01  0.113E+01  0.871E-01
  12.580  0.413E+01  0.437E+00  0.420E+00  0.823E-01  0.110E+01  0.908E-01  0.110E+01  0.908E-01  0.420E+00  0.823E-01  0.110E+01  0.908E-01
  12.600  0.399E+01  0.447E+00  0.418E+00  0.822E-01  0.105E+01  0.943E-01  0.105E+01  0.943E-01  0.418E+00  0.822E-01  0.105E+01  0.943E-01
  12.620  0.380E+01  0.456E+00  0.412E+00  0.818E-01  0.991E+00  0.976E-01  0.991E+00  0.976E-01  0.412E+00  0.818E-01  0.991E+00  0.976E-01
  12.640  0.357E+01  0.464E+00  0.403E+00  0.813E-01  0.923E+00  0.100E+00  0.923E+00  0.100E+00  0.403E+00  0.813E-01  0.923E+00  0.100E+00
  12.660  0.333E+01  0.471E+00  0.393E+00  0.808E-01  0.848E+00  0.103E+00  0.848E+00  0.103E+00  0.393E+00  0.808E-01  0.848E+00  0.103E+00
  12.680  0.307E+01  0.478E+00  0.382E+00  0.807E-01  0.768E+00  0.105E+00  0.768E+00  0.105E+00  0.382E+00  0.807E-01  0.768E+00  0.105E+00
  12.700  0.281E+01  0.486E+00  0.372E+00  0.810E-01  0.688E+00  0.108E+00  0.688E+00  0.108E+00  0.372E+00  0.810E-01  0.688E+00  0.108E+00
  12.720  0.256E+01  0.496E+00  0.364E+00  0.818E-01  0.610E+00  0.111E+00  0.610E+00  0.111E+00  0.364E+00  0.818E-01  0.610E+00  0.111E+00
  12.740  0.233E+01  0.512E+00  0.360E+00  0.832E-01  0.537E+00  0.115E+00  0.537E+00  0.115E+00  0.360E+00  0.832E-01  0.537E+00  0.115E+00
  12.760  0.213E+01  0.534E+00  0.359E+00  0.853E-01  0.471E+00  0.121E+00  0.471E+00  0.121E+00  0.359E+00  0.853E-01  0.471E+00  0.121E+00
  12.780  0.197E+01  0.566E+00  0.363E+00  0.882E-01  0.414E+00  0.130E+00  0.414E+00  0.130E+00  0.363E+00  0.882E-01  0.414E+00  0.130E+00
  12.800  0.184E+01  0.610E+00  0.372E+00  0.918E-01  0.366E+00  0.142E+00  0.366E+00  0.142E+00  0.372E+00  0.918E-01  0.366E+00  0.142E+00
  12.820  0.176E+01  0.668E+00  0.388E+00  0.962E-01  0.329E+00  0.159E+00  0.329E+00  0.159E+00  0.388E+00  0.962E-01  0.329E+00  0.159E+00
  12.840  0.172E+01  0.741E+00  0.409E+00  0.101E+00  0.302E+00  0.179E+00  0.302E+00  0.179E+00  0.409E+00  0.101E+00  0.302E+00  0.179E+00
  12.860  0.173E+01  0.828E+00  0.437E+00  0.107E+00  0.284E+00  0.205E+00  0.284E+00  0.205E+00  0.437E+00  0.107E+00  0.284E+00  0.205E+00
  12.880  0.176E+01  0.928E+00  0.470E+00  0.113E+00  0.274E+00  0.234E+00  0.274E+00  0.234E+00  0.470E+00  0.113E+00  0.274E+00  0.234E+00
  12.900  0.183E+01  0.104E+01  0.508E+00  0.119E+00  0.270E+00  0.266E+00  0.270E+00  0.266E+00  0.508E+00  0.119E+00  0.270E+00  0.266E+00
  12.920  0.191E+01  0.115E+01  0.547E+00  0.126E+00  0.271E+00  0.300E+00  0.271E+00  0.300E+00  0.547E+00  0.126E+00  0.271E+00  0.300E+00
  12.940  0.200E+01  0.127E+01  0.587E+00  0.132E+00  0.275E+00  0.335E+00  0.275E+00  0.335E+00  0.587E+00  0.132E+00  0.275E+00  0.335E+00
  12.960  0.209E+01  0.138E+01  0.625E+00  0.137E+00  0.280E+00  0.367E+00  0.280E+00  0.367E+00  0.625E+00  0.137E+00  0.280E+00  0.367E+00
  12.980  0.217E+01  0.147E+01  0.658E+00  0.141E+00  0.285E+00  0.397E+00  0.285E+00  0.397E+00  0.658E+00  0.141E+00  0.285E+00  0.397E+00
  13.000  0.223E+01  0.155E+01  0.683E+00  0.144E+00  0.287E+00  0.422E+00  0.287E+00  0.422E+00  0.683E+00  0.144E+00  0.287E+00  0.422E+00
  13.020  0.226E+01  0.161E+01  0.700E+00  0.146E+00  0.287E+00  0.441E+00  0.287E+00  0.441E+00  0.700E+00  0.146E+00  0.287E+00  0.441E+00
  13.040  0.226E+01  0.165E+01  0.707E+00  0.146E+00  0.283E+00  0.454E+00  0.283E+00  0.454E+00  0.707E+00  0.146E+00  0.283E+00  0.454E+00
  13.060  0.224E+01  0.167E+01  0.704E+00  0.145E+00  0.276E+00  0.460E+00  0.276E+00  0.460E+00  0.704E+00  0.145E+00  0.276E+00  0.460E+00
  13.080  0.218E+01  0.167E+01  0.693E+00  0.142E+00  0.266E+00  0.461E+00  0.266E+00  0.461E+00  0.693E+00  0.142E+00  0.266E+00  0.461E+00
  13.100  0.210E+01  0.164E+01  0.673E+00  0.138E+00  0.253E+00  0.456E+00  0.253E+00  0.456E+00  0.673E+00  0.138E+00  0.253E+00  0.456E+00
  13.120  0.201E+01  0.161E+01  0.648E+00  0.132E+00  0.238E+00  0.449E+00  0.238E+00  0.449E+00  0.648E+00  0.132E+00  0.238E+00  0.449E+00
  13.140  0.190E+01  0.157E+01  0.620E+00  0.126E+00  0.222E+00  0.440E+00  0.222E+00  0.440E+00  0.620E+00  0.126E+00  0.222E+00  0.440E+00
  13.160  0.180E+01  0.153E+01  0.589E+00  0.119E+00  0.206E+00  0.432E+00  0.206E+00  0.432E+00  0.589E+00  0.119E+00  0.206E+00  0.432E+00
  13.180  0.169E+01  0.150E+01  0.558E+00  0.112E+00  0.191E+00  0.425E+00  0.191E+00  0.425E+00  0.558E+00  0.112E+00  0.191E+00  0.425E+00
  13.200  0.159E+01  0.148E+01  0.529E+00  0.105E+00  0.176E+00  0.423E+00  0.176E+00  0.423E+00  0.529E+00  0.105E+00  0.176E+00  0.423E+00
  13.220  0.149E+01  0.147E+01  0.501E+00  0.979E-01  0.164E+00  0.424E+00  0.164E+00  0.424E+00  0.501E+00  0.979E-01  0.164E+00  0.424E+00
  13.240  0.141E+01  0.148E+01  0.477E+00  0.917E-01  0.154E+00  0.431E+00  0.154E+00  0.431E+00  0.477E+00  0.917E-01  0.154E+00  0.431E+00
  13.260  0.135E+01  0.150E+01  0.456E+00  0.864E-01  0.145E+00  0.443E+00  0.145E+00  0.443E+00  0.456E+00  0.864E-01  0.145E+00  0.443E+00
  13.280  0.129E+01  0.154E+01  0.438E+00  0.821E-01  0.138E+00  0.460E+00  0.138E+00  0.460E+00  0.438E+00  0.821E-01  0.138E+00  0.460E+00
  13.300  0.125E+01  0.160E+01  0.424E+00  0.790E-01  0.133E+00  0.481E+00  0.133E+00  0.481E+00  0.424E+00  0.790E-01  0.133E+00  0.481E+00
  13.320  0.121E+01  0.167E+01  0.412E+00  0.770E-01  0.130E+00  0.504E+00  0.130E+00  0.504E+00  0.412E+00  0.770E-01  0.130E+00  0.504E+00
  13.340  0.119E+01  0.174E+01  0.402E+00  0.760E-01  0.128E+00  0.530E+00  0.128E+00  0.530E+00  0.402E+00  0.760E-01  0.128E+00  0.530E+00
  13.360  0.117E+01  0.182E+01  0.394E+00  0.760E-01  0.126E+00  0.556E+00  0.126E+00  0.556E+00  0.394E+00  0.760E-01  0.126E+00  0.556E+00
  13.380  0.115E+01  0.190E+01  0.386E+00  0.765E-01  0.125E+00  0.583E+00  0.125E+00  0.583E+00  0.386E+00  0.765E-01  0.125E+00  0.583E+00
  13.400  0.113E+01  0.198E+01  0.379E+00  0.774E-01  0.124E+00  0.609E+00  0.124E+00  0.609E+00  0.379E+00  0.774E-01  0.124E+00  0.609E+00
  13.420  0.111E+01  0.207E+01  0.370E+00  0.784E-01  0.123E+00  0.636E+00  0.123E+00  0.636E+00  0.370E+00  0.784E-01  0.123E+00  0.636E+00
  13.440  0.109E+01  0.215E+01  0.361E+00  0.792E-01  0.122E+00  0.665E+00  0.122E+00  0.665E+00  0.361E+00  0.792E-01  0.122E+00  0.665E+00
  13.460  0.106E+01  0.225E+01  0.350E+00  0.797E-01  0.120E+00  0.696E+00  0.120E+00  0.696E+00  0.350E+00  0.797E-01  0.120E+00  0.696E+00
  13.480  0.103E+01  0.235E+01  0.337E+00  0.797E-01  0.117E+00  0.731E+00  0.117E+00  0.731E+00  0.337E+00  0.797E-01  0.117E+00  0.731E+00
  13.500  0.988E+00  0.248E+01  0.324E+00  0.792E-01  0.113E+00  0.773E+00  0.113E+00  0.773E+00  0.324E+00  0.792E-01  0.113E+00  0.773E+00
  13.520  0.948E+00  0.262E+01  0.310E+00  0.783E-01  0.109E+00  0.823E+00  0.109E+00  0.823E+00  0.310E+00  0.783E-01  0.109E+00  0.823E+00
  13.540  0.907E+00  0.280E+01  0.296E+00  0.770E-01  0.105E+00  0.881E+00  0.105E+00  0.881E+00  0.296E+00  0.770E-01  0.105E+00  0.881E+00
  13.560  0.866E+00  0.300E+01  0.283E+00  0.755E-01  0.997E-01  0.950E+00  0.997E-01  0.950E+00  0.283E+00  0.755E-01  0.997E-01  0.950E+00
  13.580  0.827E+00  0.323E+01  0.272E+00  0.740E-01  0.945E-01  0.103E+01  0.945E-01  0.103E+01  0.272E+00  0.740E-01  0.945E-01  0.103E+01
  13.600  0.791E+00  0.348E+01  0.262E+00  0.726E-01  0.889E-01  0.111E+01  0.889E-01  0.111E+01  0.262E+00  0.726E-01  0.889E-01  0.111E+01
  13.620  0.758E+00  0.374E+01  0.254E+00  0.712E-01  0.832E-01  0.120E+01  0.832E-01  0.120E+01  0.254E+00  0.712E-01  0.832E-01  0.120E+01
  13.640  0.729E+00  0.401E+01  0.249E+00  0.699E-01  0.772E-01  0.129E+01  0.772E-01  0.129E+01  0.249E+00  0.699E-01  0.772E-01  0.129E+01
  13.660  0.703E+00  0.426E+01  0.245E+00  0.686E-01  0.711E-01  0.137E+01  0.711E-01  0.137E+01  0.245E+00  0.686E-01  0.711E-01  0.137E+01
  13.680  0.677E+00  0.448E+01  0.241E+00  0.671E-01  0.648E-01  0.145E+01  0.648E-01  0.145E+01  0.241E+00  0.671E-01  0.648E-01  0.145E+01
  13.700  0.652E+00  0.465E+01  0.238E+00  0.652E-01  0.584E-01  0.151E+01  0.584E-01  0.151E+01  0.238E+00  0.652E-01  0.584E-01  0.151E+01
  13.720  0.624E+00  0.475E+01  0.234E+00  0.629E-01  0.520E-01  0.154E+01  0.520E-01  0.154E+01  0.234E+00  0.629E-01  0.520E-01  0.154E+01
  13.740  0.593E+00  0.476E+01  0.228E+00  0.598E-01  0.456E-01  0.155E+01  0.456E-01  0.155E+01  0.228E+00  0.598E-01  0.456E-01  0.155E+01
  13.760  0.557E+00  0.468E+01  0.220E+00  0.561E-01  0.393E-01  0.152E+01  0.393E-01  0.152E+01  0.220E+00  0.561E-01  0.393E-01  0.152E+01
  13.780  0.517E+00  0.450E+01  0.208E+00  0.516E-01  0.334E-01  0.147E+01  0.334E-01  0.147E+01  0.208E+00  0.516E-01  0.334E-01  0.147E+01
  13.800  0.471E+00  0.423E+01  0.194E+00  0.466E-01  0.278E-01  0.138E+01  0.278E-01  0.138E+01  0.194E+00  0.466E-01  0.278E-01  0.138E+01
  13.820  0.422E+00  0.387E+01  0.177E+00  0.411E-01  0.228E-01  0.126E+01  0.228E-01  0.126E+01  0.177E+00  0.411E-01  0.228E-01  0.126E+01
  13.840  0.370E+00  0.344E+01  0.158E+00  0.354E-01  0.183E-01  0.112E+01  0.183E-01  0.112E+01  0.158E+00  0.354E-01  0.183E-01  0.112E+01
  13.860  0.317E+00  0.298E+01  0.137E+00  0.297E-01  0.144E-01  0.972E+00  0.144E-01  0.972E+00  0.137E+00  0.297E-01  0.144E-01  0.972E+00
  13.880  0.265E+00  0.250E+01  0.116E+00  0.243E-01  0.111E-01  0.816E+00  0.111E-01  0.816E+00  0.116E+00  0.243E-01  0.111E-01  0.816E+00
  13.900  0.216E+00  0.203E+01  0.955E-01  0.192E-01  0.836E-02  0.663E+00  0.836E-02  0.663E+00  0.955E-01  0.192E-01  0.836E-02  0.663E+00
  13.920  0.171E+00  0.159E+01  0.764E-01  0.148E-01  0.617E-02  0.522E+00  0.617E-02  0.522E+00  0.764E-01  0.148E-01  0.617E-02  0.522E+00
  13.940  0.132E+00  0.121E+01  0.592E-01  0.110E-01  0.444E-02  0.397E+00  0.444E-02  0.397E+00  0.592E-01  0.110E-01  0.444E-02  0.397E+00
  13.960  0.985E-01  0.891E+00  0.445E-01  0.794E-02  0.312E-02  0.292E+00  0.312E-02  0.292E+00  0.445E-01  0.794E-02  0.312E-02  0.292E+00
  13.980  0.713E-01  0.631E+00  0.324E-01  0.553E-02  0.214E-02  0.207E+00  0.214E-02  0.207E+00  0.324E-01  0.553E-02  0.214E-02  0.207E+00
  14.000  0.500E-01  0.432E+00  0.228E-01  0.373E-02  0.143E-02  0.141E+00  0.143E-02  0.141E+00  0.228E-01  0.373E-02  0.143E-02  0.141E+00
  14.020  0.339E-01  0.285E+00  0.156E-01  0.242E-02  0.927E-03  0.933E-01  0.927E-03  0.933E-01  0.156E-01  0.242E-02  0.927E-03  0.933E-01
  14.040  0.222E-01  0.181E+00  0.102E-01  0.152E-02  0.585E-03  0.593E-01  0.585E-03  0.593E-01  0.102E-01  0.152E-02  0.585E-03  0.593E-01
  14.060  0.141E-01  0.111E+00  0.651E-02  0.920E-03  0.359E-03  0.363E-01  0.359E-03  0.363E-01  0.651E-02  0.920E-03  0.359E-03  0.363E-01
  14.080  0.863E-02  0.653E-01  0.399E-02  0.536E-03  0.213E-03  0.214E-01  0.213E-03  0.214E-01  0.399E-02  0.536E-03  0.213E-03  0.214E-01
  14.100  0.510E-02  0.371E-01  0.236E-02  0.301E-03  0.123E-03  0.122E-01  0.123E-03  0.122E-01  0.236E-02  0.301E-03  0.123E-03  0.122E-01
  14.120  0.291E-02  0.203E-01  0.135E-02  0.163E-03  0.685E-04  0.664E-02  0.685E-04  0.664E-02  0.135E-02  0.163E-03  0.685E-04  0.664E-02
  14.140  0.160E-02  0.107E-01  0.743E-03  0.850E-04  0.370E-04  0.349E-02  0.370E-04  0.349E-02  0.743E-03  0.850E-04  0.370E-04  0.349E-02
  14.160  0.846E-03  0.539E-02  0.394E-03  0.427E-04  0.193E-04  0.177E-02  0.193E-04  0.177E-02  0.394E-03  0.427E-04  0.193E-04  0.177E-02
  14.180  0.432E-03  0.262E-02  0.201E-03  0.206E-04  0.973E-05  0.860E-03  0.973E-05  0.860E-03  0.201E-03  0.206E-04  0.973E-05  0.860E-03
  14.200  0.212E-03  0.123E-02  0.991E-04  0.958E-05  0.473E-05  0.403E-03  0.473E-05  0.403E-03  0.991E-04  0.958E-05  0.473E-05  0.403E-03
  14.220  0.101E-03  0.552E-03  0.470E-04  0.433E-05  0.222E-05  0.181E-03  0.222E-05  0.181E-03  0.470E-04  0.433E-05  0.222E-05  0.181E-03
  14.240  0.459E-04  0.239E-03  0.214E-04  0.199E-05  0.101E-05  0.785E-04  0.101E-05  0.785E-04  0.214E-04  0.199E-05  0.101E-05  0.785E-04
  14.260  0.201E-04  0.100E-03  0.941E-05  0.117E-05  0.440E-06  0.327E-04  0.440E-06  0.327E-04  0.941E-05  0.117E-05  0.440E-06  0.327E-04
  14.280  0.851E-05  0.419E-04  0.398E-05  0.133E-05  0.187E-06  0.131E-04  0.187E-06  0.131E-04  0.398E-05  0.133E-05  0.187E-06  0.131E-04
  14.300  0.349E-05  0.204E-04  0.162E-05  0.260E-05  0.806E-07  0.505E-05  0.806E-07  0.505E-05  0.162E-05  0.260E-05  0.806E-07  0.505E-05
  14.320  0.144E-05  0.173E-04  0.655E-06  0.583E-05  0.428E-07  0.190E-05  0.428E-07  0.190E-05  0.655E-06  0.583E-05  0.428E-07  0.190E-05
  14.340  0.709E-06  0.281E-04  0.292E-06  0.129E-04  0.418E-07  0.738E-06  0.418E-07  0.738E-06  0.292E-06  0.129E-04  0.418E-07  0.738E-06
  14.360  0.624E-06  0.567E-04  0.205E-06  0.278E-04  0.712E-07  0.391E-06  0.712E-07  0.391E-06  0.205E-06  0.278E-04  0.712E-07  0.391E-06
  14.380  0.986E-06  0.116E-03  0.280E-06  0.573E-04  0.142E-06  0.419E-06  0.142E-06  0.419E-06  0.280E-06  0.573E-04  0.142E-06  0.419E-06
  14.400  0.188E-05  0.230E-03  0.514E-06  0.114E-03  0.284E-06  0.722E-06  0.284E-06  0.722E-06  0.514E-06  0.114E-03  0.284E-06  0.722E-06
  14.420  0.362E-05  0.439E-03  0.984E-06  0.217E-03  0.552E-06  0.137E-05  0.552E-06  0.137E-05  0.984E-06  0.217E-03  0.552E-06  0.137E-05
  14.440  0.678E-05  0.808E-03  0.184E-05  0.400E-03  0.103E-05  0.257E-05  0.103E-05  0.257E-05  0.184E-05  0.400E-03  0.103E-05  0.257E-05
  14.460  0.123E-04  0.143E-02  0.334E-05  0.709E-03  0.187E-05  0.464E-05  0.187E-05  0.464E-05  0.334E-05  0.709E-03  0.187E-05  0.464E-05
  14.480  0.215E-04  0.245E-02  0.587E-05  0.121E-02  0.326E-05  0.810E-05  0.326E-05  0.810E-05  0.587E-05  0.121E-02  0.326E-05  0.810E-05
  14.500  0.365E-04  0.404E-02  0.999E-05  0.200E-02  0.550E-05  0.136E-04  0.550E-05  0.136E-04  0.999E-05  0.200E-02  0.550E-05  0.136E-04
  14.520  0.599E-04  0.643E-02  0.165E-04  0.318E-02  0.897E-05  0.222E-04  0.897E-05  0.222E-04  0.165E-04  0.318E-02  0.897E-05  0.222E-04
  14.540  0.955E-04  0.990E-02  0.266E-04  0.490E-02  0.141E-04  0.348E-04  0.141E-04  0.348E-04  0.266E-04  0.490E-02  0.141E-04  0.348E-04
  14.560  0.148E-03  0.147E-01  0.416E-04  0.729E-02  0.216E-04  0.528E-04  0.216E-04  0.528E-04  0.416E-04  0.729E-02  0.216E-04  0.528E-04
  14.580  0.223E-03  0.213E-01  0.634E-04  0.105E-01  0.319E-04  0.776E-04  0.319E-04  0.776E-04  0.634E-04  0.105E-01  0.319E-04  0.776E-04
  14.600  0.326E-03  0.298E-01  0.945E-04  0.147E-01  0.457E-04  0.111E-03  0.457E-04  0.111E-03  0.945E-04  0.147E-01  0.457E-04  0.111E-03
  14.620  0.466E-03  0.405E-01  0.138E-03  0.200E-01  0.636E-04  0.153E-03  0.636E-04  0.153E-03  0.138E-03  0.200E-01  0.636E-04  0.153E-03
  14.640  0.651E-03  0.537E-01  0.196E-03  0.265E-01  0.859E-04  0.205E-03  0.859E-04  0.205E-03  0.196E-03  0.265E-01  0.859E-04  0.205E-03
  14.660  0.888E-03  0.694E-01  0.274E-03  0.343E-01  0.113E-03  0.268E-03  0.113E-03  0.268E-03  0.274E-03  0.343E-01  0.113E-03  0.268E-03
  14.680  0.119E-02  0.876E-01  0.376E-03  0.433E-01  0.144E-03  0.342E-03  0.144E-03  0.342E-03  0.376E-03  0.433E-01  0.144E-03  0.342E-03
  14.700  0.155E-02  0.108E+00  0.506E-03  0.535E-01  0.180E-03  0.427E-03  0.180E-03  0.427E-03  0.506E-03  0.535E-01  0.180E-03  0.427E-03
  14.720  0.200E-02  0.131E+00  0.668E-03  0.649E-01  0.220E-03  0.522E-03  0.220E-03  0.522E-03  0.668E-03  0.649E-01  0.220E-03  0.522E-03
  14.740  0.253E-02  0.157E+00  0.869E-03  0.775E-01  0.263E-03  0.626E-03  0.263E-03  0.626E-03  0.869E-03  0.775E-01  0.263E-03  0.626E-03
  14.760  0.315E-02  0.185E+00  0.111E-02  0.913E-01  0.308E-03  0.740E-03  0.308E-03  0.740E-03  0.111E-02  0.913E-01  0.308E-03  0.740E-03
  14.780  0.389E-02  0.215E+00  0.141E-02  0.106E+00  0.354E-03  0.863E-03  0.354E-03  0.863E-03  0.141E-02  0.106E+00  0.354E-03  0.863E-03
  14.800  0.475E-02  0.248E+00  0.177E-02  0.122E+00  0.403E-03  0.996E-03  0.403E-03  0.996E-03  0.177E-02  0.122E+00  0.403E-03  0.996E-03
  14.820  0.577E-02  0.284E+00  0.221E-02  0.140E+00  0.453E-03  0.114E-02  0.453E-03  0.114E-02  0.221E-02  0.140E+00  0.453E-03  0.114E-02
  14.840  0.698E-02  0.324E+00  0.273E-02  0.160E+00  0.507E-03  0.130E-02  0.507E-03  0.130E-02  0.273E-02  0.160E+00  0.507E-03  0.130E-02
  14.860  0.842E-02  0.369E+00  0.336E-02  0.182E+00  0.564E-03  0.147E-02  0.564E-03  0.147E-02  0.336E-02  0.182E+00  0.564E-03  0.147E-02
  14.880  0.101E-01  0.420E+00  0.413E-02  0.208E+00  0.629E-03  0.167E-02  0.629E-03  0.167E-02  0.413E-02  0.208E+00  0.629E-03  0.167E-02
  14.900  0.122E-01  0.479E+00  0.503E-02  0.236E+00  0.702E-03  0.189E-02  0.702E-03  0.189E-02  0.503E-02  0.236E+00  0.702E-03  0.189E-02
  14.920  0.146E-01  0.545E+00  0.610E-02  0.269E+00  0.787E-03  0.213E-02  0.787E-03  0.213E-02  0.610E-02  0.269E+00  0.787E-03  0.213E-02
  14.940  0.173E-01  0.621E+00  0.732E-02  0.307E+00  0.886E-03  0.241E-02  0.886E-03  0.241E-02  0.732E-02  0.307E+00  0.886E-03  0.241E-02
  14.960  0.204E-01  0.706E+00  0.870E-02  0.349E+00  0.100E-02  0.273E-02  0.100E-02  0.273E-02  0.870E-02  0.349E+00  0.100E-02  0.273E-02
  14.980  0.238E-01  0.800E+00  0.102E-01  0.395E+00  0.113E-02  0.307E-02  0.113E-02  0.307E-02  0.102E-01  0.395E+00  0.113E-02  0.307E-02
  15.000  0.275E-01  0.902E+00  0.118E-01  0.446E+00  0.128E-02  0.345E-02  0.128E-02  0.345E-02  0.118E-01  0.446E+00  0.128E-02  0.345E-02
  15.020  0.312E-01  0.101E+01  0.135E-01  0.499E+00  0.144E-02  0.385E-02  0.144E-02  0.385E-02  0.135E-01  0.499E+00  0.144E-02  0.385E-02
  15.040  0.350E-01  0.112E+01  0.151E-01  0.554E+00  0.161E-02  0.428E-02  0.161E-02  0.428E-02  0.151E-01  0.554E+00  0.161E-02  0.428E-02
  15.060  0.387E-01  0.123E+01  0.166E-01  0.610E+00  0.179E-02  0.473E-02  0.179E-02  0.473E-02  0.166E-01  0.610E+00  0.179E-02  0.473E-02
  15.080  0.420E-01  0.134E+01  0.181E-01  0.664E+00  0.197E-02  0.518E-02  0.197E-02  0.518E-02  0.181E-01  0.664E+00  0.197E-02  0.518E-02
  15.100  0.450E-01  0.145E+01  0.193E-01  0.715E+00  0.214E-02  0.563E-02  0.214E-02  0.563E-02  0.193E-01  0.715E+00  0.214E-02  0.563E-02
  15.120  0.475E-01  0.154E+01  0.203E-01  0.761E+00  0.231E-02  0.608E-02  0.231E-02  0.608E-02  0.203E-01  0.761E+00  0.231E-02  0.608E-02
  15.140  0.496E-01  0.162E+01  0.211E-01  0.802E+00  0.247E-02  0.650E-02  0.247E-02  0.650E-02  0.211E-01  0.802E+00  0.247E-02  0.650E-02
  15.160  0.513E-01  0.169E+01  0.217E-01  0.836E+00  0.262E-02  0.688E-02  0.262E-02  0.688E-02  0.217E-01  0.836E+00  0.262E-02  0.688E-02
  15.180  0.529E-01  0.175E+01  0.223E-01  0.864E+00  0.274E-02  0.723E-02  0.274E-02  0.723E-02  0.223E-01  0.864E+00  0.274E-02  0.723E-02
  15.200  0.544E-01  0.179E+01  0.229E-01  0.886E+00  0.285E-02  0.751E-02  0.285E-02  0.751E-02  0.229E-01  0.886E+00  0.285E-02  0.751E-02
  15.220  0.560E-01  0.183E+01  0.236E-01  0.901E+00  0.294E-02  0.773E-02  0.294E-02  0.773E-02  0.236E-01  0.901E+00  0.294E-02  0.773E-02
  15.240  0.580E-01  0.185E+01  0.245E-01  0.911E+00  0.300E-02  0.789E-02  0.300E-02  0.789E-02  0.245E-01  0.911E+00  0.300E-02  0.789E-02
  15.260  0.605E-01  0.186E+01  0.257E-01  0.916E+00  0.304E-02  0.796E-02  0.304E-02  0.796E-02  0.257E-01  0.916E+00  0.304E-02  0.796E-02
  15.280  0.636E-01  0.186E+01  0.272E-01  0.917E+00  0.305E-02  0.796E-02  0.305E-02  0.796E-02  0.272E-01  0.917E+00  0.305E-02  0.796E-02
  15.300  0.671E-01  0.185E+01  0.290E-01  0.914E+00  0.303E-02  0.788E-02  0.303E-02  0.788E-02  0.290E-01  0.914E+00  0.303E-02  0.788E-02
  15.320  0.710E-01  0.184E+01  0.310E-01  0.908E+00  0.299E-02  0.774E-02  0.299E-02  0.774E-02  0.310E-01  0.908E+00  0.299E-02  0.774E-02
  15.340  0.752E-01  0.182E+01  0.332E-01  0.899E+00  0.293E-02  0.753E-02  0.293E-02  0.753E-02  0.332E-01  0.899E+00  0.293E-02  0.753E-02
  15.360  0.796E-01  0.180E+01  0.355E-01  0.888E+00  0.285E-02  0.728E-02  0.285E-02  0.728E-02  0.355E-01  0.888E+00  0.285E-02  0.728E-02
  15.380  0.838E-01  0.177E+01  0.378E-01  0.874E+00  0.276E-02  0.698E-02  0.276E-02  0.698E-02  0.378E-01  0.874E+00  0.276E-02  0.698E-02
  15.400  0.880E-01  0.174E+01  0.400E-01  0.858E+00  0.265E-02  0.666E-02  0.265E-02  0.666E-02  0.400E-01  0.858E+00  0.265E-02  0.666E-02
  15.420  0.919E-01  0.170E+01  0.421E-01  0.840E+00  0.254E-02  0.633E-02  0.254E-02  0.633E-02  0.421E-01  0.840E+00  0.254E-02  0.633E-02
  15.440  0.956E-01  0.166E+01  0.442E-01  0.820E+00  0.243E-02  0.600E-02  0.243E-02  0.600E-02  0.442E-01  0.820E+00  0.243E-02  0.600E-02
  15.460  0.992E-01  0.161E+01  0.461E-01  0.799E+00  0.231E-02  0.567E-02  0.231E-02  0.567E-02  0.461E-01  0.799E+00  0.231E-02  0.567E-02
  15.480  0.103E+00  0.157E+01  0.481E-01  0.776E+00  0.221E-02  0.536E-02  0.221E-02  0.536E-02  0.481E-01  0.776E+00  0.221E-02  0.536E-02
  15.500  0.106E+00  0.152E+01  0.500E-01  0.752E+00  0.211E-02  0.507E-02  0.211E-02  0.507E-02  0.500E-01  0.752E+00  0.211E-02  0.507E-02
  15.520  0.110E+00  0.147E+01  0.520E-01  0.728E+00  0.201E-02  0.480E-02  0.201E-02  0.480E-02  0.520E-01  0.728E+00  0.201E-02  0.480E-02
  15.540  0.114E+00  0.142E+01  0.541E-01  0.704E+00  0.193E-02  0.457E-02  0.193E-02  0.457E-02  0.541E-01  0.704E+00  0.193E-02  0.457E-02
  15.560  0.118E+00  0.138E+01  0.561E-01  0.683E+00  0.186E-02  0.437E-02  0.186E-02  0.437E-02  0.561E-01  0.683E+00  0.186E-02  0.437E-02
  15.580  0.122E+00  0.134E+01  0.582E-01  0.662E+00  0.180E-02  0.420E-02  0.180E-02  0.420E-02  0.582E-01  0.662E+00  0.180E-02  0.420E-02
  15.600  0.125E+00  0.130E+01  0.601E-01  0.644E+00  0.174E-02  0.405E-02  0.174E-02  0.405E-02  0.601E-01  0.644E+00  0.174E-02  0.405E-02
  15.620  0.128E+00  0.126E+01  0.616E-01  0.626E+00  0.169E-02  0.391E-02  0.169E-02  0.391E-02  0.616E-01  0.626E+00  0.169E-02  0.391E-02
  15.640  0.131E+00  0.123E+01  0.628E-01  0.610E+00  0.165E-02  0.378E-02  0.165E-02  0.378E-02  0.628E-01  0.610E+00  0.165E-02  0.378E-02
  15.660  0.132E+00  0.120E+01  0.635E-01  0.593E+00  0.160E-02  0.366E-02  0.160E-02  0.366E-02  0.635E-01  0.593E+00  0.160E-02  0.366E-02
  15.680  0.132E+00  0.116E+01  0.637E-01  0.576E+00  0.155E-02  0.353E-02  0.155E-02  0.353E-02  0.637E-01  0.576E+00  0.155E-02  0.353E-02
  15.700  0.131E+00  0.112E+01  0.632E-01  0.557E+00  0.150E-02  0.339E-02  0.150E-02  0.339E-02  0.632E-01  0.557E+00  0.150E-02  0.339E-02
  15.720  0.128E+00  0.108E+01  0.620E-01  0.535E+00  0.144E-02  0.324E-02  0.144E-02  0.324E-02  0.620E-01  0.535E+00  0.144E-02  0.324E-02
  15.740  0.125E+00  0.103E+01  0.603E-01  0.512E+00  0.138E-02  0.308E-02  0.138E-02  0.308E-02  0.603E-01  0.512E+00  0.138E-02  0.308E-02
  15.760  0.120E+00  0.979E+00  0.580E-01  0.485E+00  0.131E-02  0.290E-02  0.131E-02  0.290E-02  0.580E-01  0.485E+00  0.131E-02  0.290E-02
  15.780  0.114E+00  0.920E+00  0.551E-01  0.456E+00  0.124E-02  0.272E-02  0.124E-02  0.272E-02  0.551E-01  0.456E+00  0.124E-02  0.272E-02
  15.800  0.107E+00  0.854E+00  0.516E-01  0.423E+00  0.116E-02  0.252E-02  0.116E-02  0.252E-02  0.516E-01  0.423E+00  0.116E-02  0.252E-02
  15.820  0.986E-01  0.782E+00  0.477E-01  0.388E+00  0.107E-02  0.231E-02  0.107E-02  0.231E-02  0.477E-01  0.388E+00  0.107E-02  0.231E-02
  15.840  0.897E-01  0.706E+00  0.434E-01  0.350E+00  0.973E-03  0.209E-02  0.973E-03  0.209E-02  0.434E-01  0.350E+00  0.973E-03  0.209E-02
  15.860  0.801E-01  0.627E+00  0.387E-01  0.311E+00  0.874E-03  0.186E-02  0.874E-03  0.186E-02  0.387E-01  0.311E+00  0.874E-03  0.186E-02
  15.880  0.702E-01  0.546E+00  0.340E-01  0.271E+00  0.771E-03  0.163E-02  0.771E-03  0.163E-02  0.340E-01  0.271E+00  0.771E-03  0.163E-02
  15.900  0.603E-01  0.467E+00  0.291E-01  0.231E+00  0.668E-03  0.141E-02  0.668E-03  0.141E-02  0.291E-01  0.231E+00  0.668E-03  0.141E-02
  15.920  0.506E-01  0.391E+00  0.245E-01  0.194E+00  0.568E-03  0.119E-02  0.568E-03  0.119E-02  0.245E-01  0.194E+00  0.568E-03  0.119E-02
  15.940  0.415E-01  0.320E+00  0.201E-01  0.158E+00  0.472E-03  0.981E-03  0.472E-03  0.981E-03  0.201E-01  0.158E+00  0.472E-03  0.981E-03
  15.960  0.332E-01  0.255E+00  0.160E-01  0.127E+00  0.383E-03  0.792E-03  0.383E-03  0.792E-03  0.160E-01  0.127E+00  0.383E-03  0.792E-03
  15.980  0.259E-01  0.199E+00  0.125E-01  0.986E-01  0.303E-03  0.624E-03  0.303E-03  0.624E-03  0.125E-01  0.986E-01  0.303E-03  0.624E-03
  16.000  0.196E-01  0.151E+00  0.946E-02  0.748E-01  0.234E-03  0.479E-03  0.234E-03  0.479E-03  0.946E-02  0.748E-01  0.234E-03  0.479E-03
  16.020  0.145E-01  0.111E+00  0.696E-02  0.551E-01  0.176E-03  0.358E-03  0.176E-03  0.358E-03  0.696E-02  0.551E-01  0.176E-03  0.358E-03
  16.040  0.103E-01  0.798E-01  0.498E-02  0.395E-01  0.128E-03  0.259E-03  0.128E-03  0.259E-03  0.498E-02  0.395E-01  0.128E-03  0.259E-03
  16.060  0.717E-02  0.555E-01  0.345E-02  0.275E-01  0.909E-04  0.183E-03  0.909E-04  0.183E-03  0.345E-02  0.275E-01  0.909E-04  0.183E-03
  16.080  0.482E-02  0.374E-01  0.232E-02  0.185E-01  0.624E-04  0.125E-03  0.624E-04  0.125E-03  0.232E-02  0.185E-01  0.624E-04  0.125E-03
  16.100  0.314E-02  0.244E-01  0.151E-02  0.121E-01  0.415E-04  0.825E-04  0.415E-04  0.825E-04  0.151E-02  0.121E-01  0.415E-04  0.825E-04
  16.120  0.198E-02  0.154E-01  0.948E-03  0.764E-02  0.267E-04  0.528E-04  0.267E-04  0.528E-04  0.948E-03  0.764E-02  0.267E-04  0.528E-04
  16.140  0.120E-02  0.943E-02  0.577E-03  0.466E-02  0.166E-04  0.327E-04  0.166E-04  0.327E-04  0.577E-03  0.466E-02  0.166E-04  0.327E-04
  16.160  0.708E-03  0.556E-02  0.339E-03  0.275E-02  0.100E-04  0.196E-04  0.100E-04  0.196E-04  0.339E-03  0.275E-02  0.100E-04  0.196E-04
  16.180  0.402E-03  0.317E-02  0.192E-03  0.157E-02  0.583E-05  0.113E-04  0.583E-05  0.113E-04  0.192E-03  0.157E-02  0.583E-05  0.113E-04
  16.200  0.221E-03  0.174E-02  0.105E-03  0.862E-03  0.329E-05  0.636E-05  0.329E-05  0.636E-05  0.105E-03  0.862E-03  0.329E-05  0.636E-05
  16.220  0.117E-03  0.925E-03  0.557E-04  0.457E-03  0.181E-05  0.347E-05  0.181E-05  0.347E-05  0.557E-04  0.457E-03  0.181E-05  0.347E-05
  16.240  0.598E-04  0.475E-03  0.284E-04  0.235E-03  0.982E-06  0.186E-05  0.982E-06  0.186E-05  0.284E-04  0.235E-03  0.982E-06  0.186E-05
  16.260  0.297E-04  0.237E-03  0.140E-04  0.117E-03  0.557E-06  0.103E-05  0.557E-06  0.103E-05  0.140E-04  0.117E-03  0.557E-06  0.103E-05
  16.280  0.145E-04  0.117E-03  0.669E-05  0.578E-04  0.371E-06  0.640E-06  0.371E-06  0.640E-06  0.669E-05  0.578E-04  0.371E-06  0.640E-06
  16.300  0.730E-05  0.617E-04  0.315E-05  0.301E-04  0.331E-06  0.521E-06  0.331E-06  0.521E-06  0.315E-05  0.301E-04  0.331E-06  0.521E-06
  16.320  0.425E-05  0.394E-04  0.154E-05  0.188E-04  0.390E-06  0.575E-06  0.390E-06  0.575E-06  0.154E-05  0.188E-04  0.390E-06  0.575E-06
  16.340  0.334E-05  0.346E-04  0.879E-06  0.161E-04  0.527E-06  0.755E-06  0.527E-06  0.755E-06  0.879E-06  0.161E-04  0.527E-06  0.755E-06
  16.360  0.354E-05  0.391E-04  0.677E-06  0.180E-04  0.729E-06  0.104E-05  0.729E-06  0.104E-05  0.677E-06  0.180E-04  0.729E-06  0.104E-05
  16.380  0.436E-05  0.490E-04  0.696E-06  0.224E-04  0.989E-06  0.142E-05  0.989E-06  0.142E-05  0.696E-06  0.224E-04  0.989E-06  0.142E-05
  16.400  0.553E-05  0.619E-04  0.820E-06  0.281E-04  0.130E-05  0.187E-05  0.130E-05  0.187E-05  0.820E-06  0.281E-04  0.130E-05  0.187E-05
  16.420  0.689E-05  0.762E-04  0.995E-06  0.346E-04  0.163E-05  0.238E-05  0.163E-05  0.238E-05  0.995E-06  0.346E-04  0.163E-05  0.238E-05
  16.440  0.830E-05  0.907E-04  0.119E-05  0.410E-04  0.197E-05  0.289E-05  0.197E-05  0.289E-05  0.119E-05  0.410E-04  0.197E-05  0.289E-05
  16.460  0.965E-05  0.104E-03  0.140E-05  0.471E-04  0.228E-05  0.338E-05  0.228E-05  0.338E-05  0.140E-05  0.471E-04  0.228E-05  0.338E-05
  16.480  0.108E-04  0.116E-03  0.162E-05  0.524E-04  0.253E-05  0.379E-05  0.253E-05  0.379E-05  0.162E-05  0.524E-04  0.253E-05  0.379E-05
  16.500  0.118E-04  0.126E-03  0.186E-05  0.568E-04  0.270E-05  0.408E-05  0.270E-05  0.408E-05  0.186E-05  0.568E-04  0.270E-05  0.408E-05
  16.520  0.126E-04  0.134E-03  0.214E-05  0.606E-04  0.276E-05  0.423E-05  0.276E-05  0.423E-05  0.214E-05  0.606E-04  0.276E-05  0.423E-05
  16.540  0.132E-04  0.141E-03  0.249E-05  0.644E-04  0.273E-05  0.423E-05  0.273E-05  0.423E-05  0.249E-05  0.644E-04  0.273E-05  0.423E-05
  16.560  0.137E-04  0.150E-03  0.295E-05  0.688E-04  0.260E-05  0.410E-05  0.260E-05  0.410E-05  0.295E-05  0.688E-04  0.260E-05  0.410E-05
  16.580  0.143E-04  0.161E-03  0.355E-05  0.747E-04  0.240E-05  0.390E-05  0.240E-05  0.390E-05  0.355E-05  0.747E-04  0.240E-05  0.390E-05
  16.600  0.152E-04  0.176E-03  0.431E-05  0.827E-04  0.218E-05  0.368E-05  0.218E-05  0.368E-05  0.431E-05  0.827E-04  0.218E-05  0.368E-05
  16.620  0.163E-04  0.196E-03  0.521E-05  0.929E-04  0.197E-05  0.349E-05  0.197E-05  0.349E-05  0.521E-05  0.929E-04  0.197E-05  0.349E-05
  16.640  0.178E-04  0.221E-03  0.620E-05  0.105E-03  0.180E-05  0.340E-05  0.180E-05  0.340E-05  0.620E-05  0.105E-03  0.180E-05  0.340E-05
  16.660  0.195E-04  0.247E-03  0.722E-05  0.118E-03  0.169E-05  0.343E-05  0.169E-05  0.343E-05  0.722E-05  0.118E-03  0.169E-05  0.343E-05
  16.680  0.213E-04  0.273E-03  0.816E-05  0.131E-03  0.165E-05  0.359E-05  0.165E-05  0.359E-05  0.816E-05  0.131E-03  0.165E-05  0.359E-05
  16.700  0.229E-04  0.296E-03  0.891E-05  0.142E-03  0.168E-05  0.385E-05  0.168E-05  0.385E-05  0.891E-05  0.142E-03  0.168E-05  0.385E-05
  16.720  0.240E-04  0.311E-03  0.938E-05  0.149E-03  0.174E-05  0.418E-05  0.174E-05  0.418E-05  0.938E-05  0.149E-03  0.174E-05  0.418E-05
  16.740  0.245E-04  0.317E-03  0.950E-05  0.152E-03  0.182E-05  0.449E-05  0.182E-05  0.449E-05  0.950E-05  0.152E-03  0.182E-05  0.449E-05
  16.760  0.242E-04  0.311E-03  0.924E-05  0.148E-03  0.189E-05  0.474E-05  0.189E-05  0.474E-05  0.924E-05  0.148E-03  0.189E-05  0.474E-05
  16.780  0.231E-04  0.295E-03  0.865E-05  0.140E-03  0.193E-05  0.487E-05  0.193E-05  0.487E-05  0.865E-05  0.140E-03  0.193E-05  0.487E-05
  16.800  0.213E-04  0.269E-03  0.778E-05  0.127E-03  0.192E-05  0.485E-05  0.192E-05  0.485E-05  0.778E-05  0.127E-03  0.192E-05  0.485E-05
  16.820  0.191E-04  0.236E-03  0.675E-05  0.111E-03  0.187E-05  0.469E-05  0.187E-05  0.469E-05  0.675E-05  0.111E-03  0.187E-05  0.469E-05
  16.840  0.167E-04  0.201E-03  0.567E-05  0.937E-04  0.178E-05  0.441E-05  0.178E-05  0.441E-05  0.567E-05  0.937E-04  0.178E-05  0.441E-05
  16.860  0.144E-04  0.166E-03  0.468E-05  0.767E-04  0.168E-05  0.406E-05  0.168E-05  0.406E-05  0.468E-05  0.767E-04  0.168E-05  0.406E-05
  16.880  0.126E-04  0.134E-03  0.390E-05  0.616E-04  0.159E-05  0.370E-05  0.159E-05  0.370E-05  0.390E-05  0.616E-04  0.159E-05  0.370E-05
  16.900  0.115E-04  0.110E-03  0.342E-05  0.499E-04  0.154E-05  0.340E-05  0.154E-05  0.340E-05  0.342E-05  0.499E-04  0.154E-05  0.340E-05
  16.920  0.113E-04  0.942E-04  0.334E-05  0.423E-04  0.154E-05  0.320E-05  0.154E-05  0.320E-05  0.334E-05  0.423E-04  0.154E-05  0.320E-05
  16.940  0.123E-04  0.886E-04  0.374E-05  0.396E-04  0.160E-05  0.315E-05  0.160E-05  0.315E-05  0.374E-05  0.396E-04  0.160E-05  0.315E-05
  16.960  0.145E-04  0.941E-04  0.467E-05  0.422E-04  0.172E-05  0.325E-05  0.172E-05  0.325E-05  0.467E-05  0.422E-04  0.172E-05  0.325E-05
  16.980  0.181E-04  0.111E-03  0.619E-05  0.503E-04  0.191E-05  0.351E-05  0.191E-05  0.351E-05  0.619E-05  0.503E-04  0.191E-05  0.351E-05
  17.000  0.231E-04  0.139E-03  0.829E-05  0.637E-04  0.217E-05  0.394E-05  0.217E-05  0.394E-05  0.829E-05  0.637E-04  0.217E-05  0.394E-05
  17.020  0.294E-04  0.178E-03  0.110E-04  0.822E-04  0.249E-05  0.452E-05  0.249E-05  0.452E-05  0.110E-04  0.822E-04  0.249E-05  0.452E-05
  17.040  0.368E-04  0.226E-03  0.141E-04  0.105E-03  0.288E-05  0.527E-05  0.288E-05  0.527E-05  0.141E-04  0.105E-03  0.288E-05  0.527E-05
  17.060  0.452E-04  0.280E-03  0.175E-04  0.131E-03  0.336E-05  0.619E-05  0.336E-05  0.619E-05  0.175E-04  0.131E-03  0.336E-05  0.619E-05
  17.080  0.541E-04  0.338E-03  0.211E-04  0.158E-03  0.394E-05  0.729E-05  0.394E-05  0.729E-05  0.211E-04  0.158E-03  0.394E-05  0.729E-05
  17.100  0.632E-04  0.397E-03  0.247E-04  0.186E-03  0.462E-05  0.857E-05  0.462E-05  0.857E-05  0.247E-04  0.186E-03  0.462E-05  0.857E-05
  17.120  0.721E-04  0.453E-03  0.279E-04  0.212E-03  0.540E-05  0.999E-05  0.540E-05  0.999E-05  0.279E-04  0.212E-03  0.540E-05  0.999E-05
  17.140  0.804E-04  0.504E-03  0.308E-04  0.235E-03  0.628E-05  0.115E-04  0.628E-05  0.115E-04  0.308E-04  0.235E-03  0.628E-05  0.115E-04
  17.160  0.880E-04  0.547E-03  0.332E-04  0.254E-03  0.720E-05  0.131E-04  0.720E-05  0.131E-04  0.332E-04  0.254E-03  0.720E-05  0.131E-04
  17.180  0.946E-04  0.581E-03  0.351E-04  0.269E-03  0.813E-05  0.146E-04  0.813E-05  0.146E-04  0.351E-04  0.269E-03  0.813E-05  0.146E-04
  17.200  0.100E-03  0.606E-03  0.366E-04  0.279E-03  0.901E-05  0.160E-04  0.901E-05  0.160E-04  0.366E-04  0.279E-03  0.901E-05  0.160E-04
  17.220  0.105E-03  0.621E-03  0.376E-04  0.285E-03  0.977E-05  0.171E-04  0.977E-05  0.171E-04  0.376E-04  0.285E-03  0.977E-05  0.171E-04
  17.240  0.108E-03  0.628E-03  0.384E-04  0.287E-03  0.104E-04  0.180E-04  0.104E-04  0.180E-04  0.384E-04  0.287E-03  0.104E-04  0.180E-04
  17.260  0.110E-03  0.626E-03  0.388E-04  0.285E-03  0.108E-04  0.184E-04  0.108E-04  0.184E-04  0.388E-04  0.285E-03  0.108E-04  0.184E-04
  17.280  0.111E-03  0.616E-03  0.389E-04  0.280E-03  0.110E-04  0.185E-04  0.110E-04  0.185E-04  0.389E-04  0.280E-03  0.110E-04  0.185E-04
  17.300  0.110E-03  0.599E-03  0.386E-04  0.272E-03  0.110E-04  0.183E-04  0.110E-04  0.183E-04  0.386E-04  0.272E-03  0.110E-04  0.183E-04
  17.320  0.108E-03  0.574E-03  0.378E-04  0.260E-03  0.108E-04  0.178E-04  0.108E-04  0.178E-04  0.378E-04  0.260E-03  0.108E-04  0.178E-04
  17.340  0.105E-03  0.543E-03  0.367E-04  0.246E-03  0.105E-04  0.172E-04  0.105E-04  0.172E-04  0.367E-04  0.246E-03  0.105E-04  0.172E-04
  17.360  0.101E-03  0.509E-03  0.352E-04  0.229E-03  0.103E-04  0.166E-04  0.103E-04  0.166E-04  0.352E-04  0.229E-03  0.103E-04  0.166E-04
  17.380  0.980E-04  0.474E-03  0.338E-04  0.213E-03  0.101E-04  0.162E-04  0.101E-04  0.162E-04  0.338E-04  0.213E-03  0.101E-04  0.162E-04
  17.400  0.962E-04  0.445E-03  0.328E-04  0.198E-03  0.102E-04  0.161E-04  0.102E-04  0.161E-04  0.328E-04  0.198E-03  0.102E-04  0.161E-04
  17.420  0.972E-04  0.426E-03  0.327E-04  0.188E-03  0.106E-04  0.165E-04  0.106E-04  0.165E-04  0.327E-04  0.188E-03  0.106E-04  0.165E-04
  17.440  0.102E-03  0.425E-03  0.342E-04  0.186E-03  0.113E-04  0.176E-04  0.113E-04  0.176E-04  0.342E-04  0.186E-03  0.113E-04  0.176E-04
  17.460  0.113E-03  0.446E-03  0.377E-04  0.194E-03  0.125E-04  0.193E-04  0.125E-04  0.193E-04  0.377E-04  0.194E-03  0.125E-04  0.193E-04
  17.480  0.130E-03  0.494E-03  0.437E-04  0.215E-03  0.141E-04  0.217E-04  0.141E-04  0.217E-04  0.437E-04  0.215E-03  0.141E-04  0.217E-04
  17.500  0.152E-03  0.570E-03  0.523E-04  0.248E-03  0.160E-04  0.247E-04  0.160E-04  0.247E-04  0.523E-04  0.248E-03  0.160E-04  0.247E-04
  17.520  0.181E-03  0.670E-03  0.632E-04  0.293E-03  0.181E-04  0.280E-04  0.181E-04  0.280E-04  0.632E-04  0.293E-03  0.181E-04  0.280E-04
  17.540  0.213E-03  0.789E-03  0.760E-04  0.347E-03  0.202E-04  0.314E-04  0.202E-04  0.314E-04  0.760E-04  0.347E-03  0.202E-04  0.314E-04
  17.560  0.246E-03  0.917E-03  0.896E-04  0.407E-03  0.222E-04  0.346E-04  0.222E-04  0.346E-04  0.896E-04  0.407E-03  0.222E-04  0.346E-04
  17.580  0.277E-03  0.104E-02  0.103E-03  0.465E-03  0.238E-04  0.373E-04  0.238E-04  0.373E-04  0.103E-03  0.465E-03  0.238E-04  0.373E-04
  17.600  0.303E-03  0.115E-02  0.114E-03  0.516E-03  0.249E-04  0.391E-04  0.249E-04  0.391E-04  0.114E-03  0.516E-03  0.249E-04  0.391E-04
  17.620  0.321E-03  0.123E-02  0.122E-03  0.554E-03  0.253E-04  0.400E-04  0.253E-04  0.400E-04  0.122E-03  0.554E-03  0.253E-04  0.400E-04
  17.640  0.328E-03  0.127E-02  0.126E-03  0.573E-03  0.251E-04  0.398E-04  0.251E-04  0.398E-04  0.126E-03  0.573E-03  0.251E-04  0.398E-04
  17.660  0.325E-03  0.126E-02  0.126E-03  0.573E-03  0.242E-04  0.385E-04  0.242E-04  0.385E-04  0.126E-03  0.573E-03  0.242E-04  0.385E-04
  17.680  0.311E-03  0.122E-02  0.121E-03  0.553E-03  0.228E-04  0.365E-04  0.228E-04  0.365E-04  0.121E-03  0.553E-03  0.228E-04  0.365E-04
  17.700  0.290E-03  0.114E-02  0.113E-03  0.517E-03  0.211E-04  0.338E-04  0.211E-04  0.338E-04  0.113E-03  0.517E-03  0.211E-04  0.338E-04
  17.720  0.263E-03  0.103E-02  0.103E-03  0.470E-03  0.192E-04  0.309E-04  0.192E-04  0.309E-04  0.103E-03  0.470E-03  0.192E-04  0.309E-04
  17.740  0.234E-03  0.921E-03  0.911E-04  0.419E-03  0.174E-04  0.280E-04  0.174E-04  0.280E-04  0.911E-04  0.419E-03  0.174E-04  0.280E-04
  17.760  0.208E-03  0.813E-03  0.804E-04  0.368E-03  0.157E-04  0.254E-04  0.157E-04  0.254E-04  0.804E-04  0.368E-03  0.157E-04  0.254E-04
  17.780  0.186E-03  0.720E-03  0.716E-04  0.325E-03  0.144E-04  0.232E-04  0.144E-04  0.232E-04  0.716E-04  0.325E-03  0.144E-04  0.232E-04
  17.800  0.171E-03  0.651E-03  0.656E-04  0.293E-03  0.133E-04  0.215E-04  0.133E-04  0.215E-04  0.656E-04  0.293E-03  0.133E-04  0.215E-04
  17.820  0.163E-03  0.610E-03  0.629E-04  0.274E-03  0.125E-04  0.203E-04  0.125E-04  0.203E-04  0.629E-04  0.274E-03  0.125E-04  0.203E-04
  17.840  0.163E-03  0.596E-03  0.635E-04  0.269E-03  0.120E-04  0.194E-04  0.120E-04  0.194E-04  0.635E-04  0.269E-03  0.120E-04  0.194E-04
  17.860  0.169E-03  0.606E-03  0.669E-04  0.275E-03  0.116E-04  0.188E-04  0.116E-04  0.188E-04  0.669E-04  0.275E-03  0.116E-04  0.188E-04
  17.880  0.179E-03  0.635E-03  0.726E-04  0.290E-03  0.113E-04  0.183E-04  0.113E-04  0.183E-04  0.726E-04  0.290E-03  0.113E-04  0.183E-04
  17.900  0.193E-03  0.677E-03  0.798E-04  0.312E-03  0.110E-04  0.177E-04  0.110E-04  0.177E-04  0.798E-04  0.312E-03  0.110E-04  0.177E-04
  17.920  0.208E-03  0.726E-03  0.878E-04  0.337E-03  0.107E-04  0.172E-04  0.107E-04  0.172E-04  0.878E-04  0.337E-03  0.107E-04  0.172E-04
  17.940  0.223E-03  0.777E-03  0.959E-04  0.364E-03  0.103E-04  0.166E-04  0.103E-04  0.166E-04  0.959E-04  0.364E-03  0.103E-04  0.166E-04
  17.960  0.237E-03  0.827E-03  0.104E-03  0.389E-03  0.996E-05  0.160E-04  0.996E-05  0.160E-04  0.104E-03  0.389E-03  0.996E-05  0.160E-04
  17.980  0.250E-03  0.872E-03  0.111E-03  0.413E-03  0.966E-05  0.155E-04  0.966E-05  0.155E-04  0.111E-03  0.413E-03  0.966E-05  0.155E-04
  18.000  0.262E-03  0.910E-03  0.117E-03  0.432E-03  0.949E-05  0.152E-04  0.949E-05  0.152E-04  0.117E-03  0.432E-03  0.949E-05  0.152E-04
  18.020  0.271E-03  0.940E-03  0.121E-03  0.447E-03  0.953E-05  0.152E-04  0.953E-05  0.152E-04  0.121E-03  0.447E-03  0.953E-05  0.152E-04
  18.040  0.279E-03  0.960E-03  0.125E-03  0.457E-03  0.981E-05  0.155E-04  0.981E-05  0.155E-04  0.125E-03  0.457E-03  0.981E-05  0.155E-04
  18.060  0.283E-03  0.971E-03  0.126E-03  0.461E-03  0.104E-04  0.162E-04  0.104E-04  0.162E-04  0.126E-03  0.461E-03  0.104E-04  0.162E-04
  18.080  0.287E-03  0.973E-03  0.126E-03  0.461E-03  0.113E-04  0.173E-04  0.113E-04  0.173E-04  0.126E-03  0.461E-03  0.113E-04  0.173E-04
  18.100  0.288E-03  0.970E-03  0.126E-03  0.457E-03  0.125E-04  0.188E-04  0.125E-04  0.188E-04  0.126E-03  0.457E-03  0.125E-04  0.188E-04
  18.120  0.291E-03  0.965E-03  0.124E-03  0.451E-03  0.140E-04  0.208E-04  0.140E-04  0.208E-04  0.124E-03  0.451E-03  0.140E-04  0.208E-04
  18.140  0.295E-03  0.965E-03  0.124E-03  0.448E-03  0.159E-04  0.232E-04  0.159E-04  0.232E-04  0.124E-03  0.448E-03  0.159E-04  0.232E-04
  18.160  0.303E-03  0.978E-03  0.124E-03  0.450E-03  0.181E-04  0.263E-04  0.181E-04  0.263E-04  0.124E-03  0.450E-03  0.181E-04  0.263E-04
  18.180  0.318E-03  0.101E-02  0.128E-03  0.461E-03  0.207E-04  0.299E-04  0.207E-04  0.299E-04  0.128E-03  0.461E-03  0.207E-04  0.299E-04
  18.200  0.339E-03  0.107E-02  0.134E-03  0.483E-03  0.237E-04  0.340E-04  0.237E-04  0.340E-04  0.134E-03  0.483E-03  0.237E-04  0.340E-04
  18.220  0.369E-03  0.115E-02  0.144E-03  0.517E-03  0.269E-04  0.386E-04  0.269E-04  0.386E-04  0.144E-03  0.517E-03  0.269E-04  0.386E-04
  18.240  0.404E-03  0.125E-02  0.157E-03  0.562E-03  0.302E-04  0.435E-04  0.302E-04  0.435E-04  0.157E-03  0.562E-03  0.302E-04  0.435E-04
  18.260  0.444E-03  0.137E-02  0.172E-03  0.614E-03  0.334E-04  0.484E-04  0.334E-04  0.484E-04  0.172E-03  0.614E-03  0.334E-04  0.484E-04
  18.280  0.484E-03  0.149E-02  0.187E-03  0.667E-03  0.365E-04  0.530E-04  0.365E-04  0.530E-04  0.187E-03  0.667E-03  0.365E-04  0.530E-04
  18.300  0.521E-03  0.160E-02  0.202E-03  0.717E-03  0.390E-04  0.569E-04  0.390E-04  0.569E-04  0.202E-03  0.717E-03  0.390E-04  0.569E-04
  18.320  0.551E-03  0.169E-02  0.214E-03  0.756E-03  0.409E-04  0.599E-04  0.409E-04  0.599E-04  0.214E-03  0.756E-03  0.409E-04  0.599E-04
  18.340  0.571E-03  0.175E-02  0.223E-03  0.783E-03  0.419E-04  0.617E-04  0.419E-04  0.617E-04  0.223E-03  0.783E-03  0.419E-04  0.617E-04
  18.360  0.582E-03  0.178E-02  0.228E-03  0.796E-03  0.421E-04  0.622E-04  0.421E-04  0.622E-04  0.228E-03  0.796E-03  0.421E-04  0.622E-04
  18.380  0.583E-03  0.178E-02  0.229E-03  0.795E-03  0.416E-04  0.616E-04  0.416E-04  0.616E-04  0.229E-03  0.795E-03  0.416E-04  0.616E-04
  18.400  0.578E-03  0.175E-02  0.229E-03  0.787E-03  0.403E-04  0.599E-04  0.403E-04  0.599E-04  0.229E-03  0.787E-03  0.403E-04  0.599E-04
  18.420  0.571E-03  0.172E-02  0.228E-03  0.775E-03  0.386E-04  0.575E-04  0.386E-04  0.575E-04  0.228E-03  0.775E-03  0.386E-04  0.575E-04
  18.440  0.566E-03  0.170E-02  0.228E-03  0.766E-03  0.367E-04  0.547E-04  0.367E-04  0.547E-04  0.228E-03  0.766E-03  0.367E-04  0.547E-04
  18.460  0.565E-03  0.168E-02  0.230E-03  0.763E-03  0.348E-04  0.518E-04  0.348E-04  0.518E-04  0.230E-03  0.763E-03  0.348E-04  0.518E-04
  18.480  0.570E-03  0.169E-02  0.235E-03  0.769E-03  0.332E-04  0.492E-04  0.332E-04  0.492E-04  0.235E-03  0.769E-03  0.332E-04  0.492E-04
  18.500  0.581E-03  0.171E-02  0.242E-03  0.783E-03  0.321E-04  0.472E-04  0.321E-04  0.472E-04  0.242E-03  0.783E-03  0.321E-04  0.472E-04
  18.520  0.595E-03  0.174E-02  0.250E-03  0.800E-03  0.317E-04  0.460E-04  0.317E-04  0.460E-04  0.250E-03  0.800E-03  0.317E-04  0.460E-04
  18.540  0.612E-03  0.177E-02  0.258E-03  0.818E-03  0.321E-04  0.458E-04  0.321E-04  0.458E-04  0.258E-03  0.818E-03  0.321E-04  0.458E-04
  18.560  0.629E-03  0.180E-02  0.264E-03  0.832E-03  0.334E-04  0.468E-04  0.334E-04  0.468E-04  0.264E-03  0.832E-03  0.334E-04  0.468E-04
  18.580  0.643E-03  0.183E-02  0.268E-03  0.839E-03  0.357E-04  0.491E-04  0.357E-04  0.491E-04  0.268E-03  0.839E-03  0.357E-04  0.491E-04
  18.600  0.656E-03  0.184E-02  0.270E-03  0.840E-03  0.388E-04  0.527E-04  0.388E-04  0.527E-04  0.270E-03  0.840E-03  0.388E-04  0.527E-04
  18.620  0.669E-03  0.185E-02  0.271E-03  0.838E-03  0.426E-04  0.574E-04  0.426E-04  0.574E-04  0.271E-03  0.838E-03  0.426E-04  0.574E-04
  18.640  0.684E-03  0.186E-02  0.272E-03  0.837E-03  0.469E-04  0.629E-04  0.469E-04  0.629E-04  0.272E-03  0.837E-03  0.469E-04  0.629E-04
  18.660  0.702E-03  0.189E-02  0.274E-03  0.840E-03  0.513E-04  0.689E-04  0.513E-04  0.689E-04  0.274E-03  0.840E-03  0.513E-04  0.689E-04
  18.680  0.724E-03  0.193E-02  0.279E-03  0.852E-03  0.553E-04  0.747E-04  0.553E-04  0.747E-04  0.279E-03  0.852E-03  0.553E-04  0.747E-04
  18.700  0.751E-03  0.199E-02  0.288E-03  0.874E-03  0.587E-04  0.799E-04  0.587E-04  0.799E-04  0.288E-03  0.874E-03  0.587E-04  0.799E-04
  18.720  0.780E-03  0.206E-02  0.299E-03  0.906E-03  0.609E-04  0.837E-04  0.609E-04  0.837E-04  0.299E-03  0.906E-03  0.609E-04  0.837E-04
  18.740  0.809E-03  0.214E-02  0.312E-03  0.943E-03  0.618E-04  0.858E-04  0.618E-04  0.858E-04  0.312E-03  0.943E-03  0.618E-04  0.858E-04
  18.760  0.834E-03  0.222E-02  0.325E-03  0.981E-03  0.613E-04  0.860E-04  0.613E-04  0.860E-04  0.325E-03  0.981E-03  0.613E-04  0.860E-04
  18.780  0.853E-03  0.228E-02  0.337E-03  0.102E-02  0.594E-04  0.841E-04  0.594E-04  0.841E-04  0.337E-03  0.102E-02  0.594E-04  0.841E-04
  18.800  0.861E-03  0.232E-02  0.346E-03  0.104E-02  0.565E-04  0.804E-04  0.565E-04  0.804E-04  0.346E-03  0.104E-02  0.565E-04  0.804E-04
  18.820  0.860E-03  0.233E-02  0.351E-03  0.105E-02  0.527E-04  0.754E-04  0.527E-04  0.754E-04  0.351E-03  0.105E-02  0.527E-04  0.754E-04
  18.840  0.848E-03  0.231E-02  0.351E-03  0.105E-02  0.486E-04  0.696E-04  0.486E-04  0.696E-04  0.351E-03  0.105E-02  0.486E-04  0.696E-04
  18.860  0.826E-03  0.226E-02  0.346E-03  0.104E-02  0.445E-04  0.636E-04  0.445E-04  0.636E-04  0.346E-03  0.104E-02  0.445E-04  0.636E-04
  18.880  0.796E-03  0.218E-02  0.337E-03  0.101E-02  0.407E-04  0.579E-04  0.407E-04  0.579E-04  0.337E-03  0.101E-02  0.407E-04  0.579E-04
  18.900  0.761E-03  0.209E-02  0.324E-03  0.964E-03  0.374E-04  0.529E-04  0.374E-04  0.529E-04  0.324E-03  0.964E-03  0.374E-04  0.529E-04
  18.920  0.722E-03  0.198E-02  0.309E-03  0.915E-03  0.347E-04  0.488E-04  0.347E-04  0.488E-04  0.309E-03  0.915E-03  0.347E-04  0.488E-04
  18.940  0.684E-03  0.186E-02  0.293E-03  0.864E-03  0.326E-04  0.455E-04  0.326E-04  0.455E-04  0.293E-03  0.864E-03  0.326E-04  0.455E-04
  18.960  0.650E-03  0.176E-02  0.279E-03  0.816E-03  0.309E-04  0.432E-04  0.309E-04  0.432E-04  0.279E-03  0.816E-03  0.309E-04  0.432E-04
  18.980  0.622E-03  0.167E-02  0.266E-03  0.774E-03  0.297E-04  0.415E-04  0.297E-04  0.415E-04  0.266E-03  0.774E-03  0.297E-04  0.415E-04
  19.000  0.602E-03  0.161E-02  0.258E-03  0.745E-03  0.287E-04  0.404E-04  0.287E-04  0.404E-04  0.258E-03  0.745E-03  0.287E-04  0.404E-04
  19.020  0.593E-03  0.158E-02  0.254E-03  0.729E-03  0.280E-04  0.397E-04  0.280E-04  0.397E-04  0.254E-03  0.729E-03  0.280E-04  0.397E-04
