# E (eV)  ldosup(E)  ldosdw(E) pdosup(E)  pdosdw(E)  pdosup(E)  pdosdw(E)  pdosup(E)  pdosdw(E)  pdosup(E)  pdosdw(E)  pdosup(E)  pdosdw(E) 
   5.000  0.267E-12  0.161E-12  0.286E-17  0.135E-18  0.890E-13  0.538E-13  0.890E-13  0.538E-13  0.286E-17  0.135E-18  0.890E-13  0.538E-13
   5.020  0.107E-11  0.645E-12  0.118E-16  0.543E-18  0.356E-12  0.215E-12  0.356E-12  0.215E-12  0.118E-16  0.543E-18  0.356E-12  0.215E-12
   5.040  0.409E-11  0.247E-11  0.468E-16  0.210E-17  0.136E-11  0.823E-12  0.136E-11  0.823E-12  0.468E-16  0.210E-17  0.136E-11  0.823E-12
   5.060  0.150E-10  0.904E-11  0.178E-15  0.779E-17  0.499E-11  0.301E-11  0.499E-11  0.301E-11  0.178E-15  0.779E-17  0.499E-11  0.301E-11
   5.080  0.526E-10  0.318E-10  0.662E-15  0.290E-16  0.175E-10  0.106E-10  0.175E-10  0.106E-10  0.662E-15  0.290E-16  0.175E-10  0.106E-10
   5.100  0.177E-09  0.107E-09  0.238E-14  0.105E-15  0.590E-10  0.357E-10  0.590E-10  0.357E-10  0.238E-14  0.105E-15  0.590E-10  0.357E-10
   5.120  0.572E-09  0.345E-09  0.810E-14  0.356E-15  0.191E-09  0.115E-09  0.191E-09  0.115E-09  0.810E-14  0.356E-15  0.191E-09  0.115E-09
   5.140  0.177E-08  0.107E-08  0.265E-13  0.117E-14  0.590E-09  0.356E-09  0.590E-09  0.356E-09  0.265E-13  0.117E-14  0.590E-09  0.356E-09
   5.160  0.525E-08  0.317E-08  0.839E-13  0.371E-14  0.175E-08  0.106E-08  0.175E-08  0.106E-08  0.839E-13  0.371E-14  0.175E-08  0.106E-08
   5.180  0.149E-07  0.901E-08  0.256E-12  0.115E-13  0.498E-08  0.300E-08  0.498E-08  0.300E-08  0.256E-12  0.115E-13  0.498E-08  0.300E-08
   5.200  0.407E-07  0.246E-07  0.756E-12  0.348E-13  0.136E-07  0.819E-08  0.136E-07  0.819E-08  0.756E-12  0.348E-13  0.136E-07  0.819E-08
   5.220  0.106E-06  0.643E-07  0.216E-11  0.103E-12  0.355E-07  0.214E-07  0.355E-07  0.214E-07  0.216E-11  0.103E-12  0.355E-07  0.214E-07
   5.240  0.267E-06  0.161E-06  0.598E-11  0.297E-12  0.891E-07  0.537E-07  0.891E-07  0.537E-07  0.598E-11  0.297E-12  0.891E-07  0.537E-07
   5.260  0.643E-06  0.388E-06  0.161E-10  0.842E-12  0.214E-06  0.129E-06  0.214E-06  0.129E-06  0.161E-10  0.842E-12  0.214E-06  0.129E-06
   5.280  0.148E-05  0.896E-06  0.421E-10  0.234E-11  0.495E-06  0.299E-06  0.495E-06  0.299E-06  0.421E-10  0.234E-11  0.495E-06  0.299E-06
   5.300  0.329E-05  0.198E-05  0.107E-09  0.634E-11  0.110E-05  0.661E-06  0.110E-05  0.661E-06  0.107E-09  0.634E-11  0.110E-05  0.661E-06
   5.320  0.700E-05  0.422E-05  0.267E-09  0.168E-10  0.233E-05  0.141E-05  0.233E-05  0.141E-05  0.267E-09  0.168E-10  0.233E-05  0.141E-05
   5.340  0.143E-04  0.862E-05  0.649E-09  0.435E-10  0.477E-05  0.287E-05  0.477E-05  0.287E-05  0.649E-09  0.435E-10  0.477E-05  0.287E-05
   5.360  0.281E-04  0.169E-04  0.154E-08  0.110E-09  0.935E-05  0.563E-05  0.935E-05  0.563E-05  0.154E-08  0.110E-09  0.935E-05  0.563E-05
   5.380  0.529E-04  0.319E-04  0.356E-08  0.269E-09  0.176E-04  0.106E-04  0.176E-04  0.106E-04  0.356E-08  0.269E-09  0.176E-04  0.106E-04
   5.400  0.959E-04  0.578E-04  0.803E-08  0.638E-09  0.320E-04  0.193E-04  0.320E-04  0.193E-04  0.803E-08  0.638E-09  0.320E-04  0.193E-04
   5.420  0.167E-03  0.101E-03  0.177E-07  0.147E-08  0.558E-04  0.336E-04  0.558E-04  0.336E-04  0.177E-07  0.147E-08  0.558E-04  0.336E-04
   5.440  0.281E-03  0.169E-03  0.377E-07  0.326E-08  0.938E-04  0.564E-04  0.938E-04  0.564E-04  0.377E-07  0.326E-08  0.938E-04  0.564E-04
   5.460  0.456E-03  0.274E-03  0.785E-07  0.701E-08  0.152E-03  0.914E-04  0.152E-03  0.914E-04  0.785E-07  0.701E-08  0.152E-03  0.914E-04
   5.480  0.715E-03  0.429E-03  0.158E-06  0.145E-07  0.238E-03  0.143E-03  0.238E-03  0.143E-03  0.158E-06  0.145E-07  0.238E-03  0.143E-03
   5.500  0.108E-02  0.649E-03  0.310E-06  0.292E-07  0.361E-03  0.216E-03  0.361E-03  0.216E-03  0.310E-06  0.292E-07  0.361E-03  0.216E-03
   5.520  0.159E-02  0.953E-03  0.587E-06  0.564E-07  0.530E-03  0.318E-03  0.530E-03  0.318E-03  0.587E-06  0.564E-07  0.530E-03  0.318E-03
   5.540  0.227E-02  0.136E-02  0.108E-05  0.105E-06  0.756E-03  0.453E-03  0.756E-03  0.453E-03  0.108E-05  0.105E-06  0.756E-03  0.453E-03
   5.560  0.316E-02  0.189E-02  0.192E-05  0.190E-06  0.105E-02  0.628E-03  0.105E-02  0.628E-03  0.192E-05  0.190E-06  0.105E-02  0.628E-03
   5.580  0.429E-02  0.256E-02  0.330E-05  0.331E-06  0.143E-02  0.852E-03  0.143E-02  0.852E-03  0.330E-05  0.331E-06  0.143E-02  0.852E-03
   5.600  0.571E-02  0.339E-02  0.549E-05  0.557E-06  0.190E-02  0.113E-02  0.190E-02  0.113E-02  0.549E-05  0.557E-06  0.190E-02  0.113E-02
   5.620  0.746E-02  0.442E-02  0.884E-05  0.905E-06  0.248E-02  0.147E-02  0.248E-02  0.147E-02  0.884E-05  0.905E-06  0.248E-02  0.147E-02
   5.640  0.957E-02  0.566E-02  0.138E-04  0.142E-05  0.318E-02  0.188E-02  0.318E-02  0.188E-02  0.138E-04  0.142E-05  0.318E-02  0.188E-02
   5.660  0.121E-01  0.712E-02  0.208E-04  0.216E-05  0.401E-02  0.237E-02  0.401E-02  0.237E-02  0.208E-04  0.216E-05  0.401E-02  0.237E-02
   5.680  0.150E-01  0.881E-02  0.305E-04  0.319E-05  0.497E-02  0.294E-02  0.497E-02  0.294E-02  0.305E-04  0.319E-05  0.497E-02  0.294E-02
   5.700  0.183E-01  0.107E-01  0.434E-04  0.454E-05  0.607E-02  0.357E-02  0.607E-02  0.357E-02  0.434E-04  0.454E-05  0.607E-02  0.357E-02
   5.720  0.219E-01  0.128E-01  0.598E-04  0.628E-05  0.726E-02  0.427E-02  0.726E-02  0.427E-02  0.598E-04  0.628E-05  0.726E-02  0.427E-02
   5.740  0.258E-01  0.150E-01  0.801E-04  0.842E-05  0.854E-02  0.501E-02  0.854E-02  0.501E-02  0.801E-04  0.842E-05  0.854E-02  0.501E-02
   5.760  0.297E-01  0.173E-01  0.105E-03  0.110E-04  0.983E-02  0.576E-02  0.983E-02  0.576E-02  0.105E-03  0.110E-04  0.983E-02  0.576E-02
   5.780  0.336E-01  0.195E-01  0.133E-03  0.139E-04  0.111E-01  0.649E-02  0.111E-01  0.649E-02  0.133E-03  0.139E-04  0.111E-01  0.649E-02
   5.800  0.372E-01  0.215E-01  0.166E-03  0.173E-04  0.123E-01  0.716E-02  0.123E-01  0.716E-02  0.166E-03  0.173E-04  0.123E-01  0.716E-02
   5.820  0.404E-01  0.233E-01  0.203E-03  0.210E-04  0.133E-01  0.775E-02  0.133E-01  0.775E-02  0.203E-03  0.210E-04  0.133E-01  0.775E-02
   5.840  0.431E-01  0.248E-01  0.244E-03  0.250E-04  0.142E-01  0.825E-02  0.142E-01  0.825E-02  0.244E-03  0.250E-04  0.142E-01  0.825E-02
   5.860  0.454E-01  0.260E-01  0.291E-03  0.293E-04  0.149E-01  0.864E-02  0.149E-01  0.864E-02  0.291E-03  0.293E-04  0.149E-01  0.864E-02
   5.880  0.473E-01  0.269E-01  0.345E-03  0.340E-04  0.155E-01  0.895E-02  0.155E-01  0.895E-02  0.345E-03  0.340E-04  0.155E-01  0.895E-02
   5.900  0.488E-01  0.277E-01  0.408E-03  0.392E-04  0.160E-01  0.919E-02  0.160E-01  0.919E-02  0.408E-03  0.392E-04  0.160E-01  0.919E-02
   5.920  0.503E-01  0.283E-01  0.484E-03  0.451E-04  0.164E-01  0.940E-02  0.164E-01  0.940E-02  0.484E-03  0.451E-04  0.164E-01  0.940E-02
   5.940  0.518E-01  0.289E-01  0.577E-03  0.519E-04  0.169E-01  0.960E-02  0.169E-01  0.960E-02  0.577E-03  0.519E-04  0.169E-01  0.960E-02
   5.960  0.534E-01  0.296E-01  0.694E-03  0.599E-04  0.173E-01  0.982E-02  0.173E-01  0.982E-02  0.694E-03  0.599E-04  0.173E-01  0.982E-02
   5.980  0.554E-01  0.304E-01  0.841E-03  0.696E-04  0.179E-01  0.101E-01  0.179E-01  0.101E-01  0.841E-03  0.696E-04  0.179E-01  0.101E-01
   6.000  0.579E-01  0.314E-01  0.103E-02  0.814E-04  0.186E-01  0.104E-01  0.186E-01  0.104E-01  0.103E-02  0.814E-04  0.186E-01  0.104E-01
   6.020  0.609E-01  0.327E-01  0.127E-02  0.958E-04  0.194E-01  0.108E-01  0.194E-01  0.108E-01  0.127E-02  0.958E-04  0.194E-01  0.108E-01
   6.040  0.646E-01  0.343E-01  0.157E-02  0.113E-03  0.205E-01  0.114E-01  0.205E-01  0.114E-01  0.157E-02  0.113E-03  0.205E-01  0.114E-01
   6.060  0.690E-01  0.362E-01  0.194E-02  0.134E-03  0.217E-01  0.120E-01  0.217E-01  0.120E-01  0.194E-02  0.134E-03  0.217E-01  0.120E-01
   6.080  0.743E-01  0.384E-01  0.238E-02  0.159E-03  0.232E-01  0.127E-01  0.232E-01  0.127E-01  0.238E-02  0.159E-03  0.232E-01  0.127E-01
   6.100  0.803E-01  0.410E-01  0.291E-02  0.187E-03  0.248E-01  0.135E-01  0.248E-01  0.135E-01  0.291E-02  0.187E-03  0.248E-01  0.135E-01
   6.120  0.870E-01  0.438E-01  0.352E-02  0.218E-03  0.266E-01  0.144E-01  0.266E-01  0.144E-01  0.352E-02  0.218E-03  0.266E-01  0.144E-01
   6.140  0.939E-01  0.466E-01  0.422E-02  0.251E-03  0.285E-01  0.154E-01  0.285E-01  0.154E-01  0.422E-02  0.251E-03  0.285E-01  0.154E-01
   6.160  0.101E+00  0.493E-01  0.499E-02  0.284E-03  0.303E-01  0.163E-01  0.303E-01  0.163E-01  0.499E-02  0.284E-03  0.303E-01  0.163E-01
   6.180  0.107E+00  0.518E-01  0.586E-02  0.317E-03  0.319E-01  0.170E-01  0.319E-01  0.170E-01  0.586E-02  0.317E-03  0.319E-01  0.170E-01
   6.200  0.113E+00  0.537E-01  0.682E-02  0.348E-03  0.332E-01  0.177E-01  0.332E-01  0.177E-01  0.682E-02  0.348E-03  0.332E-01  0.177E-01
   6.220  0.118E+00  0.551E-01  0.792E-02  0.378E-03  0.341E-01  0.181E-01  0.341E-01  0.181E-01  0.792E-02  0.378E-03  0.341E-01  0.181E-01
   6.240  0.123E+00  0.559E-01  0.920E-02  0.408E-03  0.348E-01  0.184E-01  0.348E-01  0.184E-01  0.920E-02  0.408E-03  0.348E-01  0.184E-01
   6.260  0.127E+00  0.564E-01  0.108E-01  0.438E-03  0.352E-01  0.185E-01  0.352E-01  0.185E-01  0.108E-01  0.438E-03  0.352E-01  0.185E-01
   6.280  0.132E+00  0.567E-01  0.127E-01  0.470E-03  0.356E-01  0.186E-01  0.356E-01  0.186E-01  0.127E-01  0.470E-03  0.356E-01  0.186E-01
   6.300  0.138E+00  0.571E-01  0.151E-01  0.507E-03  0.361E-01  0.187E-01  0.361E-01  0.187E-01  0.151E-01  0.507E-03  0.361E-01  0.187E-01
   6.320  0.147E+00  0.580E-01  0.181E-01  0.551E-03  0.369E-01  0.190E-01  0.369E-01  0.190E-01  0.181E-01  0.551E-03  0.369E-01  0.190E-01
   6.340  0.158E+00  0.596E-01  0.218E-01  0.604E-03  0.382E-01  0.195E-01  0.382E-01  0.195E-01  0.218E-01  0.604E-03  0.382E-01  0.195E-01
   6.360  0.173E+00  0.619E-01  0.265E-01  0.666E-03  0.400E-01  0.202E-01  0.400E-01  0.202E-01  0.265E-01  0.666E-03  0.400E-01  0.202E-01
   6.380  0.192E+00  0.651E-01  0.322E-01  0.738E-03  0.425E-01  0.212E-01  0.425E-01  0.212E-01  0.322E-01  0.738E-03  0.425E-01  0.212E-01
   6.400  0.214E+00  0.690E-01  0.389E-01  0.820E-03  0.454E-01  0.224E-01  0.454E-01  0.224E-01  0.389E-01  0.820E-03  0.454E-01  0.224E-01
   6.420  0.239E+00  0.733E-01  0.466E-01  0.910E-03  0.487E-01  0.238E-01  0.487E-01  0.238E-01  0.466E-01  0.910E-03  0.487E-01  0.238E-01
   6.440  0.267E+00  0.778E-01  0.554E-01  0.101E-02  0.521E-01  0.253E-01  0.521E-01  0.253E-01  0.554E-01  0.101E-02  0.521E-01  0.253E-01
   6.460  0.297E+00  0.822E-01  0.650E-01  0.111E-02  0.556E-01  0.267E-01  0.556E-01  0.267E-01  0.650E-01  0.111E-02  0.556E-01  0.267E-01
   6.480  0.327E+00  0.863E-01  0.753E-01  0.121E-02  0.588E-01  0.280E-01  0.588E-01  0.280E-01  0.753E-01  0.121E-02  0.588E-01  0.280E-01
   6.500  0.357E+00  0.898E-01  0.861E-01  0.131E-02  0.618E-01  0.291E-01  0.618E-01  0.291E-01  0.861E-01  0.131E-02  0.618E-01  0.291E-01
   6.520  0.387E+00  0.927E-01  0.969E-01  0.141E-02  0.643E-01  0.300E-01  0.643E-01  0.300E-01  0.969E-01  0.141E-02  0.643E-01  0.300E-01
   6.540  0.414E+00  0.948E-01  0.108E+00  0.150E-02  0.664E-01  0.306E-01  0.664E-01  0.306E-01  0.108E+00  0.150E-02  0.664E-01  0.306E-01
   6.560  0.440E+00  0.962E-01  0.118E+00  0.158E-02  0.681E-01  0.310E-01  0.681E-01  0.310E-01  0.118E+00  0.158E-02  0.681E-01  0.310E-01
   6.580  0.462E+00  0.969E-01  0.127E+00  0.164E-02  0.692E-01  0.312E-01  0.692E-01  0.312E-01  0.127E+00  0.164E-02  0.692E-01  0.312E-01
   6.600  0.482E+00  0.969E-01  0.136E+00  0.169E-02  0.700E-01  0.312E-01  0.700E-01  0.312E-01  0.136E+00  0.169E-02  0.700E-01  0.312E-01
   6.620  0.498E+00  0.963E-01  0.143E+00  0.173E-02  0.702E-01  0.310E-01  0.702E-01  0.310E-01  0.143E+00  0.173E-02  0.702E-01  0.310E-01
   6.640  0.509E+00  0.951E-01  0.150E+00  0.174E-02  0.700E-01  0.305E-01  0.700E-01  0.305E-01  0.150E+00  0.174E-02  0.700E-01  0.305E-01
   6.660  0.517E+00  0.934E-01  0.154E+00  0.173E-02  0.693E-01  0.300E-01  0.693E-01  0.300E-01  0.154E+00  0.173E-02  0.693E-01  0.300E-01
   6.680  0.520E+00  0.911E-01  0.157E+00  0.171E-02  0.682E-01  0.292E-01  0.682E-01  0.292E-01  0.157E+00  0.171E-02  0.682E-01  0.292E-01
   6.700  0.517E+00  0.884E-01  0.159E+00  0.167E-02  0.666E-01  0.284E-01  0.666E-01  0.284E-01  0.159E+00  0.167E-02  0.666E-01  0.284E-01
   6.720  0.510E+00  0.853E-01  0.158E+00  0.163E-02  0.645E-01  0.274E-01  0.645E-01  0.274E-01  0.158E+00  0.163E-02  0.645E-01  0.274E-01
   6.740  0.499E+00  0.819E-01  0.156E+00  0.157E-02  0.620E-01  0.262E-01  0.620E-01  0.262E-01  0.156E+00  0.157E-02  0.620E-01  0.262E-01
   6.760  0.482E+00  0.782E-01  0.152E+00  0.151E-02  0.592E-01  0.250E-01  0.592E-01  0.250E-01  0.152E+00  0.151E-02  0.592E-01  0.250E-01
   6.780  0.463E+00  0.744E-01  0.147E+00  0.145E-02  0.562E-01  0.238E-01  0.562E-01  0.238E-01  0.147E+00  0.145E-02  0.562E-01  0.238E-01
   6.800  0.441E+00  0.706E-01  0.141E+00  0.139E-02  0.532E-01  0.226E-01  0.532E-01  0.226E-01  0.141E+00  0.139E-02  0.532E-01  0.226E-01
   6.820  0.419E+00  0.671E-01  0.134E+00  0.136E-02  0.502E-01  0.215E-01  0.502E-01  0.215E-01  0.134E+00  0.136E-02  0.502E-01  0.215E-01
   6.840  0.398E+00  0.640E-01  0.127E+00  0.134E-02  0.476E-01  0.204E-01  0.476E-01  0.204E-01  0.127E+00  0.134E-02  0.476E-01  0.204E-01
   6.860  0.379E+00  0.615E-01  0.121E+00  0.135E-02  0.454E-01  0.196E-01  0.454E-01  0.196E-01  0.121E+00  0.135E-02  0.454E-01  0.196E-01
   6.880  0.364E+00  0.598E-01  0.116E+00  0.139E-02  0.437E-01  0.190E-01  0.437E-01  0.190E-01  0.116E+00  0.139E-02  0.437E-01  0.190E-01
   6.900  0.353E+00  0.590E-01  0.113E+00  0.146E-02  0.426E-01  0.187E-01  0.426E-01  0.187E-01  0.113E+00  0.146E-02  0.426E-01  0.187E-01
   6.920  0.346E+00  0.589E-01  0.110E+00  0.155E-02  0.420E-01  0.186E-01  0.420E-01  0.186E-01  0.110E+00  0.155E-02  0.420E-01  0.186E-01
   6.940  0.344E+00  0.597E-01  0.109E+00  0.167E-02  0.419E-01  0.188E-01  0.419E-01  0.188E-01  0.109E+00  0.167E-02  0.419E-01  0.188E-01
   6.960  0.344E+00  0.611E-01  0.109E+00  0.181E-02  0.421E-01  0.192E-01  0.421E-01  0.192E-01  0.109E+00  0.181E-02  0.421E-01  0.192E-01
   6.980  0.347E+00  0.630E-01  0.109E+00  0.195E-02  0.425E-01  0.197E-01  0.425E-01  0.197E-01  0.109E+00  0.195E-02  0.425E-01  0.197E-01
   7.000  0.350E+00  0.652E-01  0.110E+00  0.209E-02  0.430E-01  0.203E-01  0.430E-01  0.203E-01  0.110E+00  0.209E-02  0.430E-01  0.203E-01
   7.020  0.354E+00  0.674E-01  0.112E+00  0.222E-02  0.435E-01  0.210E-01  0.435E-01  0.210E-01  0.112E+00  0.222E-02  0.435E-01  0.210E-01
   7.040  0.357E+00  0.694E-01  0.113E+00  0.234E-02  0.439E-01  0.216E-01  0.439E-01  0.216E-01  0.113E+00  0.234E-02  0.439E-01  0.216E-01
   7.060  0.360E+00  0.712E-01  0.113E+00  0.243E-02  0.442E-01  0.221E-01  0.442E-01  0.221E-01  0.113E+00  0.243E-02  0.442E-01  0.221E-01
   7.080  0.362E+00  0.725E-01  0.114E+00  0.251E-02  0.445E-01  0.225E-01  0.445E-01  0.225E-01  0.114E+00  0.251E-02  0.445E-01  0.225E-01
   7.100  0.365E+00  0.733E-01  0.115E+00  0.258E-02  0.449E-01  0.227E-01  0.449E-01  0.227E-01  0.115E+00  0.258E-02  0.449E-01  0.227E-01
   7.120  0.369E+00  0.737E-01  0.117E+00  0.265E-02  0.453E-01  0.228E-01  0.453E-01  0.228E-01  0.117E+00  0.265E-02  0.453E-01  0.228E-01
   7.140  0.376E+00  0.739E-01  0.119E+00  0.274E-02  0.460E-01  0.228E-01  0.460E-01  0.228E-01  0.119E+00  0.274E-02  0.460E-01  0.228E-01
   7.160  0.388E+00  0.741E-01  0.123E+00  0.285E-02  0.469E-01  0.228E-01  0.469E-01  0.228E-01  0.123E+00  0.285E-02  0.469E-01  0.228E-01
   7.180  0.406E+00  0.744E-01  0.130E+00  0.300E-02  0.484E-01  0.228E-01  0.484E-01  0.228E-01  0.130E+00  0.300E-02  0.484E-01  0.228E-01
   7.200  0.433E+00  0.753E-01  0.141E+00  0.322E-02  0.504E-01  0.230E-01  0.504E-01  0.230E-01  0.141E+00  0.322E-02  0.504E-01  0.230E-01
   7.220  0.473E+00  0.770E-01  0.157E+00  0.350E-02  0.532E-01  0.233E-01  0.532E-01  0.233E-01  0.157E+00  0.350E-02  0.532E-01  0.233E-01
   7.240  0.529E+00  0.797E-01  0.179E+00  0.386E-02  0.569E-01  0.240E-01  0.569E-01  0.240E-01  0.179E+00  0.386E-02  0.569E-01  0.240E-01
   7.260  0.602E+00  0.835E-01  0.208E+00  0.431E-02  0.617E-01  0.250E-01  0.617E-01  0.250E-01  0.208E+00  0.431E-02  0.617E-01  0.250E-01
   7.280  0.696E+00  0.886E-01  0.247E+00  0.486E-02  0.676E-01  0.263E-01  0.676E-01  0.263E-01  0.247E+00  0.486E-02  0.676E-01  0.263E-01
   7.300  0.812E+00  0.948E-01  0.294E+00  0.548E-02  0.746E-01  0.280E-01  0.746E-01  0.280E-01  0.294E+00  0.548E-02  0.746E-01  0.280E-01
   7.320  0.949E+00  0.102E+00  0.351E+00  0.620E-02  0.827E-01  0.299E-01  0.827E-01  0.299E-01  0.351E+00  0.620E-02  0.827E-01  0.299E-01
   7.340  0.111E+01  0.110E+00  0.416E+00  0.699E-02  0.918E-01  0.321E-01  0.918E-01  0.321E-01  0.416E+00  0.699E-02  0.918E-01  0.321E-01
   7.360  0.128E+01  0.119E+00  0.489E+00  0.785E-02  0.101E+00  0.344E-01  0.101E+00  0.344E-01  0.489E+00  0.785E-02  0.101E+00  0.344E-01
   7.380  0.147E+01  0.128E+00  0.567E+00  0.878E-02  0.111E+00  0.369E-01  0.111E+00  0.369E-01  0.567E+00  0.878E-02  0.111E+00  0.369E-01
   7.400  0.166E+01  0.137E+00  0.649E+00  0.976E-02  0.121E+00  0.393E-01  0.121E+00  0.393E-01  0.649E+00  0.976E-02  0.121E+00  0.393E-01
   7.420  0.185E+01  0.146E+00  0.730E+00  0.108E-01  0.130E+00  0.415E-01  0.130E+00  0.415E-01  0.730E+00  0.108E-01  0.130E+00  0.415E-01
   7.440  0.203E+01  0.155E+00  0.809E+00  0.118E-01  0.138E+00  0.437E-01  0.138E+00  0.437E-01  0.809E+00  0.118E-01  0.138E+00  0.437E-01
   7.460  0.219E+01  0.162E+00  0.880E+00  0.128E-01  0.144E+00  0.456E-01  0.144E+00  0.456E-01  0.880E+00  0.128E-01  0.144E+00  0.456E-01
   7.480  0.233E+01  0.169E+00  0.943E+00  0.138E-01  0.149E+00  0.473E-01  0.149E+00  0.473E-01  0.943E+00  0.138E-01  0.149E+00  0.473E-01
   7.500  0.244E+01  0.176E+00  0.992E+00  0.147E-01  0.153E+00  0.487E-01  0.153E+00  0.487E-01  0.992E+00  0.147E-01  0.153E+00  0.487E-01
   7.520  0.252E+01  0.181E+00  0.103E+01  0.155E-01  0.155E+00  0.499E-01  0.155E+00  0.499E-01  0.103E+01  0.155E-01  0.155E+00  0.499E-01
   7.540  0.255E+01  0.185E+00  0.104E+01  0.160E-01  0.156E+00  0.509E-01  0.156E+00  0.509E-01  0.104E+01  0.160E-01  0.156E+00  0.509E-01
   7.560  0.254E+01  0.188E+00  0.104E+01  0.164E-01  0.155E+00  0.516E-01  0.155E+00  0.516E-01  0.104E+01  0.164E-01  0.155E+00  0.516E-01
   7.580  0.250E+01  0.189E+00  0.102E+01  0.165E-01  0.153E+00  0.521E-01  0.153E+00  0.521E-01  0.102E+01  0.165E-01  0.153E+00  0.521E-01
   7.600  0.241E+01  0.190E+00  0.978E+00  0.164E-01  0.151E+00  0.524E-01  0.151E+00  0.524E-01  0.978E+00  0.164E-01  0.151E+00  0.524E-01
   7.620  0.228E+01  0.190E+00  0.922E+00  0.162E-01  0.147E+00  0.524E-01  0.147E+00  0.524E-01  0.922E+00  0.162E-01  0.147E+00  0.524E-01
   7.640  0.213E+01  0.188E+00  0.853E+00  0.158E-01  0.142E+00  0.521E-01  0.142E+00  0.521E-01  0.853E+00  0.158E-01  0.142E+00  0.521E-01
   7.660  0.196E+01  0.185E+00  0.776E+00  0.153E-01  0.136E+00  0.515E-01  0.136E+00  0.515E-01  0.776E+00  0.153E-01  0.136E+00  0.515E-01
   7.680  0.178E+01  0.181E+00  0.695E+00  0.147E-01  0.130E+00  0.506E-01  0.130E+00  0.506E-01  0.695E+00  0.147E-01  0.130E+00  0.506E-01
   7.700  0.160E+01  0.177E+00  0.614E+00  0.142E-01  0.123E+00  0.495E-01  0.123E+00  0.495E-01  0.614E+00  0.142E-01  0.123E+00  0.495E-01
   7.720  0.142E+01  0.172E+00  0.537E+00  0.137E-01  0.116E+00  0.482E-01  0.116E+00  0.482E-01  0.537E+00  0.137E-01  0.116E+00  0.482E-01
   7.740  0.126E+01  0.167E+00  0.468E+00  0.134E-01  0.109E+00  0.469E-01  0.109E+00  0.469E-01  0.468E+00  0.134E-01  0.109E+00  0.469E-01
   7.760  0.112E+01  0.163E+00  0.407E+00  0.131E-01  0.102E+00  0.456E-01  0.102E+00  0.456E-01  0.407E+00  0.131E-01  0.102E+00  0.456E-01
   7.780  0.100E+01  0.159E+00  0.356E+00  0.129E-01  0.962E-01  0.446E-01  0.962E-01  0.446E-01  0.356E+00  0.129E-01  0.962E-01  0.446E-01
   7.800  0.904E+00  0.157E+00  0.315E+00  0.128E-01  0.914E-01  0.438E-01  0.914E-01  0.438E-01  0.315E+00  0.128E-01  0.914E-01  0.438E-01
   7.820  0.827E+00  0.155E+00  0.281E+00  0.128E-01  0.878E-01  0.433E-01  0.878E-01  0.433E-01  0.281E+00  0.128E-01  0.878E-01  0.433E-01
   7.840  0.767E+00  0.155E+00  0.255E+00  0.128E-01  0.857E-01  0.431E-01  0.857E-01  0.431E-01  0.255E+00  0.128E-01  0.857E-01  0.431E-01
   7.860  0.722E+00  0.156E+00  0.234E+00  0.128E-01  0.849E-01  0.433E-01  0.849E-01  0.433E-01  0.234E+00  0.128E-01  0.849E-01  0.433E-01
   7.880  0.689E+00  0.157E+00  0.217E+00  0.129E-01  0.853E-01  0.437E-01  0.853E-01  0.437E-01  0.217E+00  0.129E-01  0.853E-01  0.437E-01
   7.900  0.665E+00  0.159E+00  0.202E+00  0.130E-01  0.868E-01  0.443E-01  0.868E-01  0.443E-01  0.202E+00  0.130E-01  0.868E-01  0.443E-01
   7.920  0.647E+00  0.161E+00  0.189E+00  0.131E-01  0.893E-01  0.451E-01  0.893E-01  0.451E-01  0.189E+00  0.131E-01  0.893E-01  0.451E-01
   7.940  0.634E+00  0.164E+00  0.178E+00  0.134E-01  0.927E-01  0.458E-01  0.927E-01  0.458E-01  0.178E+00  0.134E-01  0.927E-01  0.458E-01
   7.960  0.626E+00  0.167E+00  0.168E+00  0.136E-01  0.968E-01  0.466E-01  0.968E-01  0.466E-01  0.168E+00  0.136E-01  0.968E-01  0.466E-01
   7.980  0.621E+00  0.170E+00  0.158E+00  0.140E-01  0.102E+00  0.475E-01  0.102E+00  0.475E-01  0.158E+00  0.140E-01  0.102E+00  0.475E-01
   8.000  0.621E+00  0.174E+00  0.150E+00  0.145E-01  0.107E+00  0.484E-01  0.107E+00  0.484E-01  0.150E+00  0.145E-01  0.107E+00  0.484E-01
   8.020  0.626E+00  0.178E+00  0.143E+00  0.151E-01  0.113E+00  0.493E-01  0.113E+00  0.493E-01  0.143E+00  0.151E-01  0.113E+00  0.493E-01
   8.040  0.634E+00  0.183E+00  0.138E+00  0.157E-01  0.120E+00  0.504E-01  0.120E+00  0.504E-01  0.138E+00  0.157E-01  0.120E+00  0.504E-01
   8.060  0.646E+00  0.188E+00  0.134E+00  0.165E-01  0.126E+00  0.516E-01  0.126E+00  0.516E-01  0.134E+00  0.165E-01  0.126E+00  0.516E-01
   8.080  0.661E+00  0.193E+00  0.130E+00  0.173E-01  0.133E+00  0.528E-01  0.133E+00  0.528E-01  0.130E+00  0.173E-01  0.133E+00  0.528E-01
   8.100  0.677E+00  0.199E+00  0.128E+00  0.181E-01  0.140E+00  0.542E-01  0.140E+00  0.542E-01  0.128E+00  0.181E-01  0.140E+00  0.542E-01
   8.120  0.695E+00  0.205E+00  0.127E+00  0.190E-01  0.147E+00  0.556E-01  0.147E+00  0.556E-01  0.127E+00  0.190E-01  0.147E+00  0.556E-01
   8.140  0.711E+00  0.211E+00  0.127E+00  0.199E-01  0.153E+00  0.570E-01  0.153E+00  0.570E-01  0.127E+00  0.199E-01  0.153E+00  0.570E-01
   8.160  0.727E+00  0.217E+00  0.126E+00  0.207E-01  0.158E+00  0.585E-01  0.158E+00  0.585E-01  0.126E+00  0.207E-01  0.158E+00  0.585E-01
   8.180  0.742E+00  0.223E+00  0.127E+00  0.215E-01  0.163E+00  0.601E-01  0.163E+00  0.601E-01  0.127E+00  0.215E-01  0.163E+00  0.601E-01
   8.200  0.756E+00  0.230E+00  0.127E+00  0.222E-01  0.168E+00  0.618E-01  0.168E+00  0.618E-01  0.127E+00  0.222E-01  0.168E+00  0.618E-01
   8.220  0.769E+00  0.237E+00  0.127E+00  0.228E-01  0.172E+00  0.636E-01  0.172E+00  0.636E-01  0.127E+00  0.228E-01  0.172E+00  0.636E-01
   8.240  0.782E+00  0.244E+00  0.127E+00  0.234E-01  0.176E+00  0.657E-01  0.176E+00  0.657E-01  0.127E+00  0.234E-01  0.176E+00  0.657E-01
   8.260  0.794E+00  0.252E+00  0.127E+00  0.239E-01  0.180E+00  0.680E-01  0.180E+00  0.680E-01  0.127E+00  0.239E-01  0.180E+00  0.680E-01
   8.280  0.806E+00  0.260E+00  0.126E+00  0.243E-01  0.185E+00  0.705E-01  0.185E+00  0.705E-01  0.126E+00  0.243E-01  0.185E+00  0.705E-01
   8.300  0.817E+00  0.268E+00  0.125E+00  0.245E-01  0.189E+00  0.731E-01  0.189E+00  0.731E-01  0.125E+00  0.245E-01  0.189E+00  0.731E-01
   8.320  0.827E+00  0.276E+00  0.123E+00  0.246E-01  0.194E+00  0.757E-01  0.194E+00  0.757E-01  0.123E+00  0.246E-01  0.194E+00  0.757E-01
   8.340  0.834E+00  0.284E+00  0.120E+00  0.246E-01  0.198E+00  0.784E-01  0.198E+00  0.784E-01  0.120E+00  0.246E-01  0.198E+00  0.784E-01
   8.360  0.839E+00  0.292E+00  0.116E+00  0.245E-01  0.202E+00  0.809E-01  0.202E+00  0.809E-01  0.116E+00  0.245E-01  0.202E+00  0.809E-01
   8.380  0.840E+00  0.298E+00  0.112E+00  0.243E-01  0.205E+00  0.833E-01  0.205E+00  0.833E-01  0.112E+00  0.243E-01  0.205E+00  0.833E-01
   8.400  0.837E+00  0.305E+00  0.107E+00  0.239E-01  0.207E+00  0.856E-01  0.207E+00  0.856E-01  0.107E+00  0.239E-01  0.207E+00  0.856E-01
   8.420  0.828E+00  0.310E+00  0.102E+00  0.235E-01  0.208E+00  0.877E-01  0.208E+00  0.877E-01  0.102E+00  0.235E-01  0.208E+00  0.877E-01
   8.440  0.815E+00  0.315E+00  0.969E-01  0.230E-01  0.207E+00  0.895E-01  0.207E+00  0.895E-01  0.969E-01  0.230E-01  0.207E+00  0.895E-01
   8.460  0.796E+00  0.319E+00  0.917E-01  0.225E-01  0.204E+00  0.912E-01  0.204E+00  0.912E-01  0.917E-01  0.225E-01  0.204E+00  0.912E-01
   8.480  0.774E+00  0.322E+00  0.866E-01  0.219E-01  0.200E+00  0.926E-01  0.200E+00  0.926E-01  0.866E-01  0.219E-01  0.200E+00  0.926E-01
   8.500  0.748E+00  0.324E+00  0.820E-01  0.214E-01  0.195E+00  0.937E-01  0.195E+00  0.937E-01  0.820E-01  0.214E-01  0.195E+00  0.937E-01
   8.520  0.720E+00  0.325E+00  0.778E-01  0.209E-01  0.188E+00  0.945E-01  0.188E+00  0.945E-01  0.778E-01  0.209E-01  0.188E+00  0.945E-01
   8.540  0.691E+00  0.326E+00  0.742E-01  0.204E-01  0.181E+00  0.951E-01  0.181E+00  0.951E-01  0.742E-01  0.204E-01  0.181E+00  0.951E-01
   8.560  0.663E+00  0.326E+00  0.710E-01  0.200E-01  0.174E+00  0.952E-01  0.174E+00  0.952E-01  0.710E-01  0.200E-01  0.174E+00  0.952E-01
   8.580  0.636E+00  0.324E+00  0.683E-01  0.196E-01  0.167E+00  0.950E-01  0.167E+00  0.950E-01  0.683E-01  0.196E-01  0.167E+00  0.950E-01
   8.600  0.612E+00  0.322E+00  0.658E-01  0.193E-01  0.160E+00  0.945E-01  0.160E+00  0.945E-01  0.658E-01  0.193E-01  0.160E+00  0.945E-01
   8.620  0.591E+00  0.319E+00  0.636E-01  0.189E-01  0.155E+00  0.936E-01  0.155E+00  0.936E-01  0.636E-01  0.189E-01  0.155E+00  0.936E-01
   8.640  0.573E+00  0.314E+00  0.615E-01  0.186E-01  0.150E+00  0.922E-01  0.150E+00  0.922E-01  0.615E-01  0.186E-01  0.150E+00  0.922E-01
   8.660  0.556E+00  0.308E+00  0.594E-01  0.182E-01  0.146E+00  0.905E-01  0.146E+00  0.905E-01  0.594E-01  0.182E-01  0.146E+00  0.905E-01
   8.680  0.542E+00  0.301E+00  0.572E-01  0.178E-01  0.143E+00  0.884E-01  0.143E+00  0.884E-01  0.572E-01  0.178E-01  0.143E+00  0.884E-01
   8.700  0.529E+00  0.292E+00  0.551E-01  0.173E-01  0.140E+00  0.858E-01  0.140E+00  0.858E-01  0.551E-01  0.173E-01  0.140E+00  0.858E-01
   8.720  0.518E+00  0.283E+00  0.528E-01  0.169E-01  0.138E+00  0.829E-01  0.138E+00  0.829E-01  0.528E-01  0.169E-01  0.138E+00  0.829E-01
   8.740  0.508E+00  0.272E+00  0.506E-01  0.164E-01  0.136E+00  0.798E-01  0.136E+00  0.798E-01  0.506E-01  0.164E-01  0.136E+00  0.798E-01
   8.760  0.501E+00  0.261E+00  0.485E-01  0.160E-01  0.135E+00  0.765E-01  0.135E+00  0.765E-01  0.485E-01  0.160E-01  0.135E+00  0.765E-01
   8.780  0.495E+00  0.251E+00  0.466E-01  0.156E-01  0.134E+00  0.732E-01  0.134E+00  0.732E-01  0.466E-01  0.156E-01  0.134E+00  0.732E-01
   8.800  0.493E+00  0.241E+00  0.451E-01  0.154E-01  0.134E+00  0.701E-01  0.134E+00  0.701E-01  0.451E-01  0.154E-01  0.134E+00  0.701E-01
   8.820  0.493E+00  0.233E+00  0.439E-01  0.153E-01  0.135E+00  0.673E-01  0.135E+00  0.673E-01  0.439E-01  0.153E-01  0.135E+00  0.673E-01
   8.840  0.497E+00  0.225E+00  0.432E-01  0.153E-01  0.137E+00  0.649E-01  0.137E+00  0.649E-01  0.432E-01  0.153E-01  0.137E+00  0.649E-01
   8.860  0.504E+00  0.220E+00  0.429E-01  0.154E-01  0.139E+00  0.630E-01  0.139E+00  0.630E-01  0.429E-01  0.154E-01  0.139E+00  0.630E-01
   8.880  0.513E+00  0.216E+00  0.432E-01  0.157E-01  0.142E+00  0.614E-01  0.142E+00  0.614E-01  0.432E-01  0.157E-01  0.142E+00  0.614E-01
   8.900  0.525E+00  0.213E+00  0.439E-01  0.159E-01  0.146E+00  0.602E-01  0.146E+00  0.602E-01  0.439E-01  0.159E-01  0.146E+00  0.602E-01
   8.920  0.538E+00  0.211E+00  0.451E-01  0.163E-01  0.149E+00  0.594E-01  0.149E+00  0.594E-01  0.451E-01  0.163E-01  0.149E+00  0.594E-01
   8.940  0.554E+00  0.210E+00  0.467E-01  0.167E-01  0.154E+00  0.588E-01  0.154E+00  0.588E-01  0.467E-01  0.167E-01  0.154E+00  0.588E-01
   8.960  0.573E+00  0.210E+00  0.486E-01  0.172E-01  0.159E+00  0.585E-01  0.159E+00  0.585E-01  0.486E-01  0.172E-01  0.159E+00  0.585E-01
   8.980  0.595E+00  0.211E+00  0.508E-01  0.177E-01  0.165E+00  0.584E-01  0.165E+00  0.584E-01  0.508E-01  0.177E-01  0.165E+00  0.584E-01
   9.000  0.621E+00  0.212E+00  0.530E-01  0.183E-01  0.172E+00  0.585E-01  0.172E+00  0.585E-01  0.530E-01  0.183E-01  0.172E+00  0.585E-01
   9.020  0.650E+00  0.214E+00  0.551E-01  0.189E-01  0.180E+00  0.589E-01  0.180E+00  0.589E-01  0.551E-01  0.189E-01  0.180E+00  0.589E-01
   9.040  0.685E+00  0.217E+00  0.571E-01  0.195E-01  0.190E+00  0.594E-01  0.190E+00  0.594E-01  0.571E-01  0.195E-01  0.190E+00  0.594E-01
   9.060  0.723E+00  0.220E+00  0.586E-01  0.200E-01  0.202E+00  0.599E-01  0.202E+00  0.599E-01  0.586E-01  0.200E-01  0.202E+00  0.599E-01
   9.080  0.764E+00  0.223E+00  0.597E-01  0.205E-01  0.215E+00  0.605E-01  0.215E+00  0.605E-01  0.597E-01  0.205E-01  0.215E+00  0.605E-01
   9.100  0.809E+00  0.225E+00  0.602E-01  0.208E-01  0.229E+00  0.611E-01  0.229E+00  0.611E-01  0.602E-01  0.208E-01  0.229E+00  0.611E-01
   9.120  0.854E+00  0.227E+00  0.602E-01  0.210E-01  0.244E+00  0.617E-01  0.244E+00  0.617E-01  0.602E-01  0.210E-01  0.244E+00  0.617E-01
   9.140  0.898E+00  0.229E+00  0.598E-01  0.210E-01  0.259E+00  0.622E-01  0.259E+00  0.622E-01  0.598E-01  0.210E-01  0.259E+00  0.622E-01
   9.160  0.939E+00  0.231E+00  0.592E-01  0.210E-01  0.274E+00  0.629E-01  0.274E+00  0.629E-01  0.592E-01  0.210E-01  0.274E+00  0.629E-01
   9.180  0.976E+00  0.233E+00  0.583E-01  0.208E-01  0.286E+00  0.638E-01  0.286E+00  0.638E-01  0.583E-01  0.208E-01  0.286E+00  0.638E-01
   9.200  0.101E+01  0.236E+00  0.575E-01  0.207E-01  0.297E+00  0.650E-01  0.297E+00  0.650E-01  0.575E-01  0.207E-01  0.297E+00  0.650E-01
   9.220  0.103E+01  0.241E+00  0.567E-01  0.205E-01  0.305E+00  0.667E-01  0.305E+00  0.667E-01  0.567E-01  0.205E-01  0.305E+00  0.667E-01
   9.240  0.104E+01  0.248E+00  0.561E-01  0.204E-01  0.311E+00  0.689E-01  0.311E+00  0.689E-01  0.561E-01  0.204E-01  0.311E+00  0.689E-01
   9.260  0.105E+01  0.256E+00  0.557E-01  0.204E-01  0.314E+00  0.718E-01  0.314E+00  0.718E-01  0.557E-01  0.204E-01  0.314E+00  0.718E-01
   9.280  0.106E+01  0.267E+00  0.554E-01  0.203E-01  0.315E+00  0.754E-01  0.315E+00  0.754E-01  0.554E-01  0.203E-01  0.315E+00  0.754E-01
   9.300  0.106E+01  0.279E+00  0.552E-01  0.203E-01  0.315E+00  0.795E-01  0.315E+00  0.795E-01  0.552E-01  0.203E-01  0.315E+00  0.795E-01
   9.320  0.105E+01  0.293E+00  0.551E-01  0.202E-01  0.315E+00  0.841E-01  0.315E+00  0.841E-01  0.551E-01  0.202E-01  0.315E+00  0.841E-01
   9.340  0.105E+01  0.307E+00  0.549E-01  0.201E-01  0.314E+00  0.890E-01  0.314E+00  0.890E-01  0.549E-01  0.201E-01  0.314E+00  0.890E-01
   9.360  0.105E+01  0.322E+00  0.546E-01  0.200E-01  0.314E+00  0.940E-01  0.314E+00  0.940E-01  0.546E-01  0.200E-01  0.314E+00  0.940E-01
   9.380  0.106E+01  0.336E+00  0.541E-01  0.197E-01  0.316E+00  0.990E-01  0.316E+00  0.990E-01  0.541E-01  0.197E-01  0.316E+00  0.990E-01
   9.400  0.106E+01  0.350E+00  0.536E-01  0.194E-01  0.318E+00  0.104E+00  0.318E+00  0.104E+00  0.536E-01  0.194E-01  0.318E+00  0.104E+00
   9.420  0.107E+01  0.362E+00  0.529E-01  0.190E-01  0.322E+00  0.108E+00  0.322E+00  0.108E+00  0.529E-01  0.190E-01  0.322E+00  0.108E+00
   9.440  0.109E+01  0.373E+00  0.522E-01  0.185E-01  0.328E+00  0.112E+00  0.328E+00  0.112E+00  0.522E-01  0.185E-01  0.328E+00  0.112E+00
   9.460  0.110E+01  0.381E+00  0.514E-01  0.179E-01  0.334E+00  0.115E+00  0.334E+00  0.115E+00  0.514E-01  0.179E-01  0.334E+00  0.115E+00
   9.480  0.112E+01  0.387E+00  0.506E-01  0.173E-01  0.340E+00  0.117E+00  0.340E+00  0.117E+00  0.506E-01  0.173E-01  0.340E+00  0.117E+00
   9.500  0.113E+01  0.390E+00  0.498E-01  0.167E-01  0.345E+00  0.119E+00  0.345E+00  0.119E+00  0.498E-01  0.167E-01  0.345E+00  0.119E+00
   9.520  0.115E+01  0.390E+00  0.489E-01  0.161E-01  0.350E+00  0.119E+00  0.350E+00  0.119E+00  0.489E-01  0.161E-01  0.350E+00  0.119E+00
   9.540  0.115E+01  0.387E+00  0.481E-01  0.155E-01  0.352E+00  0.119E+00  0.352E+00  0.119E+00  0.481E-01  0.155E-01  0.352E+00  0.119E+00
   9.560  0.115E+01  0.381E+00  0.473E-01  0.149E-01  0.353E+00  0.117E+00  0.353E+00  0.117E+00  0.473E-01  0.149E-01  0.353E+00  0.117E+00
   9.580  0.115E+01  0.373E+00  0.464E-01  0.144E-01  0.352E+00  0.115E+00  0.352E+00  0.115E+00  0.464E-01  0.144E-01  0.352E+00  0.115E+00
   9.600  0.114E+01  0.363E+00  0.455E-01  0.138E-01  0.348E+00  0.112E+00  0.348E+00  0.112E+00  0.455E-01  0.138E-01  0.348E+00  0.112E+00
   9.620  0.112E+01  0.351E+00  0.444E-01  0.132E-01  0.343E+00  0.108E+00  0.343E+00  0.108E+00  0.444E-01  0.132E-01  0.343E+00  0.108E+00
   9.640  0.109E+01  0.338E+00  0.433E-01  0.127E-01  0.335E+00  0.104E+00  0.335E+00  0.104E+00  0.433E-01  0.127E-01  0.335E+00  0.104E+00
   9.660  0.106E+01  0.325E+00  0.421E-01  0.122E-01  0.326E+00  0.100E+00  0.326E+00  0.100E+00  0.421E-01  0.122E-01  0.326E+00  0.100E+00
   9.680  0.103E+01  0.311E+00  0.408E-01  0.117E-01  0.315E+00  0.960E-01  0.315E+00  0.960E-01  0.408E-01  0.117E-01  0.315E+00  0.960E-01
   9.700  0.992E+00  0.298E+00  0.395E-01  0.113E-01  0.304E+00  0.919E-01  0.304E+00  0.919E-01  0.395E-01  0.113E-01  0.304E+00  0.919E-01
   9.720  0.957E+00  0.286E+00  0.382E-01  0.109E-01  0.294E+00  0.881E-01  0.294E+00  0.881E-01  0.382E-01  0.109E-01  0.294E+00  0.881E-01
   9.740  0.925E+00  0.275E+00  0.369E-01  0.107E-01  0.284E+00  0.846E-01  0.284E+00  0.846E-01  0.369E-01  0.107E-01  0.284E+00  0.846E-01
   9.760  0.898E+00  0.266E+00  0.358E-01  0.105E-01  0.276E+00  0.817E-01  0.276E+00  0.817E-01  0.358E-01  0.105E-01  0.276E+00  0.817E-01
   9.780  0.878E+00  0.259E+00  0.348E-01  0.103E-01  0.270E+00  0.793E-01  0.270E+00  0.793E-01  0.348E-01  0.103E-01  0.270E+00  0.793E-01
   9.800  0.866E+00  0.253E+00  0.340E-01  0.103E-01  0.266E+00  0.776E-01  0.266E+00  0.776E-01  0.340E-01  0.103E-01  0.266E+00  0.776E-01
   9.820  0.862E+00  0.250E+00  0.333E-01  0.103E-01  0.265E+00  0.766E-01  0.265E+00  0.766E-01  0.333E-01  0.103E-01  0.265E+00  0.766E-01
   9.840  0.865E+00  0.250E+00  0.329E-01  0.104E-01  0.267E+00  0.763E-01  0.267E+00  0.763E-01  0.329E-01  0.104E-01  0.267E+00  0.763E-01
   9.860  0.877E+00  0.251E+00  0.326E-01  0.105E-01  0.271E+00  0.768E-01  0.271E+00  0.768E-01  0.326E-01  0.105E-01  0.271E+00  0.768E-01
   9.880  0.896E+00  0.256E+00  0.325E-01  0.106E-01  0.277E+00  0.781E-01  0.277E+00  0.781E-01  0.325E-01  0.106E-01  0.277E+00  0.781E-01
   9.900  0.924E+00  0.263E+00  0.326E-01  0.108E-01  0.286E+00  0.804E-01  0.286E+00  0.804E-01  0.326E-01  0.108E-01  0.286E+00  0.804E-01
   9.920  0.960E+00  0.273E+00  0.330E-01  0.111E-01  0.298E+00  0.837E-01  0.298E+00  0.837E-01  0.330E-01  0.111E-01  0.298E+00  0.837E-01
   9.940  0.100E+01  0.287E+00  0.336E-01  0.113E-01  0.313E+00  0.880E-01  0.313E+00  0.880E-01  0.336E-01  0.113E-01  0.313E+00  0.880E-01
   9.960  0.106E+01  0.304E+00  0.346E-01  0.117E-01  0.329E+00  0.936E-01  0.329E+00  0.936E-01  0.346E-01  0.117E-01  0.329E+00  0.936E-01
   9.980  0.111E+01  0.325E+00  0.360E-01  0.121E-01  0.347E+00  0.100E+00  0.347E+00  0.100E+00  0.360E-01  0.121E-01  0.347E+00  0.100E+00
  10.000  0.117E+01  0.350E+00  0.378E-01  0.125E-01  0.366E+00  0.108E+00  0.366E+00  0.108E+00  0.378E-01  0.125E-01  0.366E+00  0.108E+00
  10.020  0.123E+01  0.378E+00  0.399E-01  0.131E-01  0.383E+00  0.117E+00  0.383E+00  0.117E+00  0.399E-01  0.131E-01  0.383E+00  0.117E+00
  10.040  0.128E+01  0.409E+00  0.424E-01  0.137E-01  0.397E+00  0.127E+00  0.397E+00  0.127E+00  0.424E-01  0.137E-01  0.397E+00  0.127E+00
  10.060  0.131E+01  0.442E+00  0.450E-01  0.144E-01  0.408E+00  0.138E+00  0.408E+00  0.138E+00  0.450E-01  0.144E-01  0.408E+00  0.138E+00
  10.080  0.134E+01  0.476E+00  0.476E-01  0.152E-01  0.414E+00  0.149E+00  0.414E+00  0.149E+00  0.476E-01  0.152E-01  0.414E+00  0.149E+00
  10.100  0.134E+01  0.511E+00  0.501E-01  0.161E-01  0.415E+00  0.160E+00  0.415E+00  0.160E+00  0.501E-01  0.161E-01  0.415E+00  0.160E+00
  10.120  0.134E+01  0.546E+00  0.523E-01  0.170E-01  0.411E+00  0.171E+00  0.411E+00  0.171E+00  0.523E-01  0.170E-01  0.411E+00  0.171E+00
  10.140  0.132E+01  0.579E+00  0.540E-01  0.180E-01  0.404E+00  0.181E+00  0.404E+00  0.181E+00  0.540E-01  0.180E-01  0.404E+00  0.181E+00
  10.160  0.130E+01  0.610E+00  0.553E-01  0.191E-01  0.396E+00  0.191E+00  0.396E+00  0.191E+00  0.553E-01  0.191E-01  0.396E+00  0.191E+00
  10.180  0.127E+01  0.638E+00  0.560E-01  0.202E-01  0.387E+00  0.199E+00  0.387E+00  0.199E+00  0.560E-01  0.202E-01  0.387E+00  0.199E+00
  10.200  0.125E+01  0.661E+00  0.561E-01  0.214E-01  0.379E+00  0.206E+00  0.379E+00  0.206E+00  0.561E-01  0.214E-01  0.379E+00  0.206E+00
  10.220  0.123E+01  0.680E+00  0.557E-01  0.225E-01  0.371E+00  0.212E+00  0.371E+00  0.212E+00  0.557E-01  0.225E-01  0.371E+00  0.212E+00
  10.240  0.121E+01  0.693E+00  0.547E-01  0.235E-01  0.365E+00  0.215E+00  0.365E+00  0.215E+00  0.547E-01  0.235E-01  0.365E+00  0.215E+00
  10.260  0.119E+01  0.701E+00  0.533E-01  0.244E-01  0.360E+00  0.218E+00  0.360E+00  0.218E+00  0.533E-01  0.244E-01  0.360E+00  0.218E+00
  10.280  0.117E+01  0.705E+00  0.516E-01  0.252E-01  0.355E+00  0.218E+00  0.355E+00  0.218E+00  0.516E-01  0.252E-01  0.355E+00  0.218E+00
  10.300  0.115E+01  0.703E+00  0.497E-01  0.257E-01  0.349E+00  0.217E+00  0.349E+00  0.217E+00  0.497E-01  0.257E-01  0.349E+00  0.217E+00
  10.320  0.112E+01  0.698E+00  0.476E-01  0.261E-01  0.343E+00  0.215E+00  0.343E+00  0.215E+00  0.476E-01  0.261E-01  0.343E+00  0.215E+00
  10.340  0.109E+01  0.690E+00  0.456E-01  0.263E-01  0.334E+00  0.212E+00  0.334E+00  0.212E+00  0.456E-01  0.263E-01  0.334E+00  0.212E+00
  10.360  0.106E+01  0.679E+00  0.438E-01  0.263E-01  0.323E+00  0.209E+00  0.323E+00  0.209E+00  0.438E-01  0.263E-01  0.323E+00  0.209E+00
  10.380  0.102E+01  0.667E+00  0.423E-01  0.261E-01  0.311E+00  0.205E+00  0.311E+00  0.205E+00  0.423E-01  0.261E-01  0.311E+00  0.205E+00
  10.400  0.973E+00  0.653E+00  0.413E-01  0.258E-01  0.297E+00  0.201E+00  0.297E+00  0.201E+00  0.413E-01  0.258E-01  0.297E+00  0.201E+00
  10.420  0.926E+00  0.639E+00  0.407E-01  0.254E-01  0.282E+00  0.196E+00  0.282E+00  0.196E+00  0.407E-01  0.254E-01  0.282E+00  0.196E+00
  10.440  0.879E+00  0.625E+00  0.406E-01  0.249E-01  0.266E+00  0.192E+00  0.266E+00  0.192E+00  0.406E-01  0.249E-01  0.266E+00  0.192E+00
  10.460  0.832E+00  0.610E+00  0.409E-01  0.245E-01  0.250E+00  0.187E+00  0.250E+00  0.187E+00  0.409E-01  0.245E-01  0.250E+00  0.187E+00
  10.480  0.789E+00  0.595E+00  0.416E-01  0.242E-01  0.235E+00  0.182E+00  0.235E+00  0.182E+00  0.416E-01  0.242E-01  0.235E+00  0.182E+00
  10.500  0.750E+00  0.579E+00  0.427E-01  0.239E-01  0.221E+00  0.177E+00  0.221E+00  0.177E+00  0.427E-01  0.239E-01  0.221E+00  0.177E+00
  10.520  0.717E+00  0.563E+00  0.441E-01  0.239E-01  0.209E+00  0.172E+00  0.209E+00  0.172E+00  0.441E-01  0.239E-01  0.209E+00  0.172E+00
  10.540  0.690E+00  0.548E+00  0.457E-01  0.240E-01  0.200E+00  0.167E+00  0.200E+00  0.167E+00  0.457E-01  0.240E-01  0.200E+00  0.167E+00
  10.560  0.672E+00  0.533E+00  0.475E-01  0.244E-01  0.192E+00  0.162E+00  0.192E+00  0.162E+00  0.475E-01  0.244E-01  0.192E+00  0.162E+00
  10.580  0.662E+00  0.520E+00  0.494E-01  0.250E-01  0.188E+00  0.157E+00  0.188E+00  0.157E+00  0.494E-01  0.250E-01  0.188E+00  0.157E+00
  10.600  0.660E+00  0.510E+00  0.513E-01  0.258E-01  0.186E+00  0.153E+00  0.186E+00  0.153E+00  0.513E-01  0.258E-01  0.186E+00  0.153E+00
  10.620  0.665E+00  0.502E+00  0.533E-01  0.267E-01  0.186E+00  0.150E+00  0.186E+00  0.150E+00  0.533E-01  0.267E-01  0.186E+00  0.150E+00
  10.640  0.677E+00  0.500E+00  0.553E-01  0.278E-01  0.189E+00  0.148E+00  0.189E+00  0.148E+00  0.553E-01  0.278E-01  0.189E+00  0.148E+00
  10.660  0.694E+00  0.504E+00  0.572E-01  0.288E-01  0.193E+00  0.149E+00  0.193E+00  0.149E+00  0.572E-01  0.288E-01  0.193E+00  0.149E+00
  10.680  0.716E+00  0.516E+00  0.591E-01  0.298E-01  0.199E+00  0.152E+00  0.199E+00  0.152E+00  0.591E-01  0.298E-01  0.199E+00  0.152E+00
  10.700  0.742E+00  0.538E+00  0.611E-01  0.309E-01  0.206E+00  0.159E+00  0.206E+00  0.159E+00  0.611E-01  0.309E-01  0.206E+00  0.159E+00
  10.720  0.770E+00  0.569E+00  0.631E-01  0.318E-01  0.215E+00  0.168E+00  0.215E+00  0.168E+00  0.631E-01  0.318E-01  0.215E+00  0.168E+00
  10.740  0.801E+00  0.611E+00  0.652E-01  0.328E-01  0.223E+00  0.182E+00  0.223E+00  0.182E+00  0.652E-01  0.328E-01  0.223E+00  0.182E+00
  10.760  0.832E+00  0.662E+00  0.675E-01  0.338E-01  0.232E+00  0.198E+00  0.232E+00  0.198E+00  0.675E-01  0.338E-01  0.232E+00  0.198E+00
  10.780  0.863E+00  0.721E+00  0.699E-01  0.349E-01  0.241E+00  0.217E+00  0.241E+00  0.217E+00  0.699E-01  0.349E-01  0.241E+00  0.217E+00
  10.800  0.891E+00  0.786E+00  0.723E-01  0.360E-01  0.249E+00  0.238E+00  0.249E+00  0.238E+00  0.723E-01  0.360E-01  0.249E+00  0.238E+00
  10.820  0.915E+00  0.853E+00  0.746E-01  0.372E-01  0.255E+00  0.260E+00  0.255E+00  0.260E+00  0.746E-01  0.372E-01  0.255E+00  0.260E+00
  10.840  0.931E+00  0.919E+00  0.765E-01  0.385E-01  0.259E+00  0.281E+00  0.259E+00  0.281E+00  0.765E-01  0.385E-01  0.259E+00  0.281E+00
  10.860  0.937E+00  0.981E+00  0.778E-01  0.397E-01  0.261E+00  0.301E+00  0.261E+00  0.301E+00  0.778E-01  0.397E-01  0.261E+00  0.301E+00
  10.880  0.933E+00  0.104E+01  0.786E-01  0.408E-01  0.258E+00  0.319E+00  0.258E+00  0.319E+00  0.786E-01  0.408E-01  0.258E+00  0.319E+00
  10.900  0.916E+00  0.109E+01  0.786E-01  0.419E-01  0.253E+00  0.334E+00  0.253E+00  0.334E+00  0.786E-01  0.419E-01  0.253E+00  0.334E+00
  10.920  0.888E+00  0.113E+01  0.780E-01  0.429E-01  0.244E+00  0.348E+00  0.244E+00  0.348E+00  0.780E-01  0.429E-01  0.244E+00  0.348E+00
  10.940  0.851E+00  0.116E+01  0.769E-01  0.438E-01  0.232E+00  0.359E+00  0.232E+00  0.359E+00  0.769E-01  0.438E-01  0.232E+00  0.359E+00
  10.960  0.807E+00  0.120E+01  0.754E-01  0.446E-01  0.219E+00  0.369E+00  0.219E+00  0.369E+00  0.754E-01  0.446E-01  0.219E+00  0.369E+00
  10.980  0.760E+00  0.123E+01  0.739E-01  0.454E-01  0.204E+00  0.379E+00  0.204E+00  0.379E+00  0.739E-01  0.454E-01  0.204E+00  0.379E+00
  11.000  0.712E+00  0.126E+01  0.725E-01  0.462E-01  0.189E+00  0.389E+00  0.189E+00  0.389E+00  0.725E-01  0.462E-01  0.189E+00  0.389E+00
  11.020  0.667E+00  0.129E+01  0.714E-01  0.471E-01  0.175E+00  0.399E+00  0.175E+00  0.399E+00  0.714E-01  0.471E-01  0.175E+00  0.399E+00
  11.040  0.627E+00  0.132E+01  0.706E-01  0.480E-01  0.162E+00  0.408E+00  0.162E+00  0.408E+00  0.706E-01  0.480E-01  0.162E+00  0.408E+00
  11.060  0.592E+00  0.135E+01  0.702E-01  0.488E-01  0.150E+00  0.418E+00  0.150E+00  0.418E+00  0.702E-01  0.488E-01  0.150E+00  0.418E+00
  11.080  0.561E+00  0.138E+01  0.700E-01  0.495E-01  0.140E+00  0.426E+00  0.140E+00  0.426E+00  0.700E-01  0.495E-01  0.140E+00  0.426E+00
  11.100  0.535E+00  0.140E+01  0.699E-01  0.500E-01  0.132E+00  0.433E+00  0.132E+00  0.433E+00  0.699E-01  0.500E-01  0.132E+00  0.433E+00
  11.120  0.512E+00  0.141E+01  0.697E-01  0.503E-01  0.124E+00  0.437E+00  0.124E+00  0.437E+00  0.697E-01  0.503E-01  0.124E+00  0.437E+00
  11.140  0.491E+00  0.142E+01  0.693E-01  0.504E-01  0.118E+00  0.440E+00  0.118E+00  0.440E+00  0.693E-01  0.504E-01  0.118E+00  0.440E+00
  11.160  0.472E+00  0.142E+01  0.687E-01  0.502E-01  0.112E+00  0.440E+00  0.112E+00  0.440E+00  0.687E-01  0.502E-01  0.112E+00  0.440E+00
  11.180  0.455E+00  0.142E+01  0.678E-01  0.498E-01  0.106E+00  0.439E+00  0.106E+00  0.439E+00  0.678E-01  0.498E-01  0.106E+00  0.439E+00
  11.200  0.440E+00  0.141E+01  0.667E-01  0.492E-01  0.102E+00  0.437E+00  0.102E+00  0.437E+00  0.667E-01  0.492E-01  0.102E+00  0.437E+00
  11.220  0.427E+00  0.140E+01  0.656E-01  0.486E-01  0.987E-01  0.434E+00  0.987E-01  0.434E+00  0.656E-01  0.486E-01  0.987E-01  0.434E+00
  11.240  0.418E+00  0.139E+01  0.645E-01  0.481E-01  0.963E-01  0.432E+00  0.963E-01  0.432E+00  0.645E-01  0.481E-01  0.963E-01  0.432E+00
  11.260  0.412E+00  0.138E+01  0.635E-01  0.477E-01  0.950E-01  0.430E+00  0.950E-01  0.430E+00  0.635E-01  0.477E-01  0.950E-01  0.430E+00
  11.280  0.409E+00  0.138E+01  0.629E-01  0.475E-01  0.945E-01  0.429E+00  0.945E-01  0.429E+00  0.629E-01  0.475E-01  0.945E-01  0.429E+00
  11.300  0.410E+00  0.138E+01  0.626E-01  0.475E-01  0.948E-01  0.430E+00  0.948E-01  0.430E+00  0.626E-01  0.475E-01  0.948E-01  0.430E+00
  11.320  0.412E+00  0.139E+01  0.628E-01  0.477E-01  0.956E-01  0.432E+00  0.956E-01  0.432E+00  0.628E-01  0.477E-01  0.956E-01  0.432E+00
  11.340  0.417E+00  0.140E+01  0.635E-01  0.481E-01  0.965E-01  0.436E+00  0.965E-01  0.436E+00  0.635E-01  0.481E-01  0.965E-01  0.436E+00
  11.360  0.422E+00  0.142E+01  0.646E-01  0.487E-01  0.974E-01  0.442E+00  0.974E-01  0.442E+00  0.646E-01  0.487E-01  0.974E-01  0.442E+00
  11.380  0.427E+00  0.145E+01  0.662E-01  0.495E-01  0.981E-01  0.449E+00  0.981E-01  0.449E+00  0.662E-01  0.495E-01  0.981E-01  0.449E+00
  11.400  0.431E+00  0.148E+01  0.680E-01  0.502E-01  0.983E-01  0.459E+00  0.983E-01  0.459E+00  0.680E-01  0.502E-01  0.983E-01  0.459E+00
  11.420  0.434E+00  0.151E+01  0.699E-01  0.509E-01  0.980E-01  0.469E+00  0.980E-01  0.469E+00  0.699E-01  0.509E-01  0.980E-01  0.469E+00
  11.440  0.435E+00  0.155E+01  0.717E-01  0.514E-01  0.971E-01  0.481E+00  0.971E-01  0.481E+00  0.717E-01  0.514E-01  0.971E-01  0.481E+00
  11.460  0.434E+00  0.159E+01  0.734E-01  0.516E-01  0.956E-01  0.494E+00  0.956E-01  0.494E+00  0.734E-01  0.516E-01  0.956E-01  0.494E+00
  11.480  0.430E+00  0.163E+01  0.746E-01  0.515E-01  0.936E-01  0.508E+00  0.936E-01  0.508E+00  0.746E-01  0.515E-01  0.936E-01  0.508E+00
  11.500  0.424E+00  0.167E+01  0.754E-01  0.511E-01  0.910E-01  0.523E+00  0.910E-01  0.523E+00  0.754E-01  0.511E-01  0.910E-01  0.523E+00
  11.520  0.415E+00  0.172E+01  0.756E-01  0.503E-01  0.881E-01  0.539E+00  0.881E-01  0.539E+00  0.756E-01  0.503E-01  0.881E-01  0.539E+00
  11.540  0.406E+00  0.176E+01  0.755E-01  0.492E-01  0.849E-01  0.555E+00  0.849E-01  0.555E+00  0.755E-01  0.492E-01  0.849E-01  0.555E+00
  11.560  0.395E+00  0.181E+01  0.750E-01  0.480E-01  0.818E-01  0.573E+00  0.818E-01  0.573E+00  0.750E-01  0.480E-01  0.818E-01  0.573E+00
  11.580  0.385E+00  0.187E+01  0.744E-01  0.466E-01  0.788E-01  0.591E+00  0.788E-01  0.591E+00  0.744E-01  0.466E-01  0.788E-01  0.591E+00
  11.600  0.376E+00  0.192E+01  0.738E-01  0.452E-01  0.761E-01  0.610E+00  0.761E-01  0.610E+00  0.738E-01  0.452E-01  0.761E-01  0.610E+00
  11.620  0.368E+00  0.197E+01  0.734E-01  0.437E-01  0.737E-01  0.629E+00  0.737E-01  0.629E+00  0.734E-01  0.437E-01  0.737E-01  0.629E+00
  11.640  0.361E+00  0.202E+01  0.733E-01  0.423E-01  0.716E-01  0.646E+00  0.716E-01  0.646E+00  0.733E-01  0.423E-01  0.716E-01  0.646E+00
  11.660  0.356E+00  0.206E+01  0.734E-01  0.409E-01  0.698E-01  0.660E+00  0.698E-01  0.660E+00  0.734E-01  0.409E-01  0.698E-01  0.660E+00
  11.680  0.352E+00  0.208E+01  0.737E-01  0.395E-01  0.681E-01  0.669E+00  0.681E-01  0.669E+00  0.737E-01  0.395E-01  0.681E-01  0.669E+00
  11.700  0.347E+00  0.209E+01  0.741E-01  0.381E-01  0.663E-01  0.670E+00  0.663E-01  0.670E+00  0.741E-01  0.381E-01  0.663E-01  0.670E+00
  11.720  0.341E+00  0.206E+01  0.743E-01  0.366E-01  0.643E-01  0.664E+00  0.643E-01  0.664E+00  0.743E-01  0.366E-01  0.643E-01  0.664E+00
  11.740  0.334E+00  0.201E+01  0.743E-01  0.350E-01  0.619E-01  0.648E+00  0.619E-01  0.648E+00  0.743E-01  0.350E-01  0.619E-01  0.648E+00
  11.760  0.325E+00  0.193E+01  0.739E-01  0.333E-01  0.590E-01  0.621E+00  0.590E-01  0.621E+00  0.739E-01  0.333E-01  0.590E-01  0.621E+00
  11.780  0.313E+00  0.182E+01  0.729E-01  0.316E-01  0.558E-01  0.586E+00  0.558E-01  0.586E+00  0.729E-01  0.316E-01  0.558E-01  0.586E+00
  11.800  0.299E+00  0.168E+01  0.713E-01  0.299E-01  0.521E-01  0.541E+00  0.521E-01  0.541E+00  0.713E-01  0.299E-01  0.521E-01  0.541E+00
  11.820  0.283E+00  0.153E+01  0.691E-01  0.283E-01  0.482E-01  0.491E+00  0.482E-01  0.491E+00  0.691E-01  0.283E-01  0.482E-01  0.491E+00
  11.840  0.265E+00  0.136E+01  0.665E-01  0.267E-01  0.440E-01  0.437E+00  0.440E-01  0.437E+00  0.665E-01  0.267E-01  0.440E-01  0.437E+00
  11.860  0.247E+00  0.120E+01  0.636E-01  0.253E-01  0.399E-01  0.382E+00  0.399E-01  0.382E+00  0.636E-01  0.253E-01  0.399E-01  0.382E+00
  11.880  0.229E+00  0.103E+01  0.606E-01  0.240E-01  0.359E-01  0.328E+00  0.359E-01  0.328E+00  0.606E-01  0.240E-01  0.359E-01  0.328E+00
  11.900  0.212E+00  0.882E+00  0.579E-01  0.229E-01  0.322E-01  0.279E+00  0.322E-01  0.279E+00  0.579E-01  0.229E-01  0.322E-01  0.279E+00
  11.920  0.198E+00  0.749E+00  0.556E-01  0.220E-01  0.288E-01  0.235E+00  0.288E-01  0.235E+00  0.556E-01  0.220E-01  0.288E-01  0.235E+00
  11.940  0.186E+00  0.637E+00  0.541E-01  0.214E-01  0.259E-01  0.198E+00  0.259E-01  0.198E+00  0.541E-01  0.214E-01  0.259E-01  0.198E+00
  11.960  0.178E+00  0.547E+00  0.537E-01  0.209E-01  0.234E-01  0.168E+00  0.234E-01  0.168E+00  0.537E-01  0.209E-01  0.234E-01  0.168E+00
  11.980  0.173E+00  0.478E+00  0.546E-01  0.207E-01  0.214E-01  0.146E+00  0.214E-01  0.146E+00  0.546E-01  0.207E-01  0.214E-01  0.146E+00
  12.000  0.174E+00  0.430E+00  0.570E-01  0.209E-01  0.199E-01  0.129E+00  0.199E-01  0.129E+00  0.570E-01  0.209E-01  0.199E-01  0.129E+00
  12.020  0.178E+00  0.399E+00  0.610E-01  0.214E-01  0.188E-01  0.119E+00  0.188E-01  0.119E+00  0.610E-01  0.214E-01  0.188E-01  0.119E+00
  12.040  0.188E+00  0.384E+00  0.668E-01  0.224E-01  0.181E-01  0.113E+00  0.181E-01  0.113E+00  0.668E-01  0.224E-01  0.181E-01  0.113E+00
  12.060  0.202E+00  0.381E+00  0.744E-01  0.240E-01  0.178E-01  0.111E+00  0.178E-01  0.111E+00  0.744E-01  0.240E-01  0.178E-01  0.111E+00
  12.080  0.221E+00  0.388E+00  0.839E-01  0.262E-01  0.178E-01  0.112E+00  0.178E-01  0.112E+00  0.839E-01  0.262E-01  0.178E-01  0.112E+00
  12.100  0.245E+00  0.402E+00  0.953E-01  0.291E-01  0.181E-01  0.115E+00  0.181E-01  0.115E+00  0.953E-01  0.291E-01  0.181E-01  0.115E+00
  12.120  0.272E+00  0.422E+00  0.108E+00  0.328E-01  0.185E-01  0.119E+00  0.185E-01  0.119E+00  0.108E+00  0.328E-01  0.185E-01  0.119E+00
  12.140  0.303E+00  0.445E+00  0.123E+00  0.372E-01  0.190E-01  0.123E+00  0.190E-01  0.123E+00  0.123E+00  0.372E-01  0.190E-01  0.123E+00
  12.160  0.338E+00  0.470E+00  0.140E+00  0.426E-01  0.195E-01  0.128E+00  0.195E-01  0.128E+00  0.140E+00  0.426E-01  0.195E-01  0.128E+00
  12.180  0.376E+00  0.497E+00  0.158E+00  0.488E-01  0.201E-01  0.133E+00  0.201E-01  0.133E+00  0.158E+00  0.488E-01  0.201E-01  0.133E+00
  12.200  0.416E+00  0.524E+00  0.177E+00  0.557E-01  0.206E-01  0.137E+00  0.206E-01  0.137E+00  0.177E+00  0.557E-01  0.206E-01  0.137E+00
  12.220  0.458E+00  0.550E+00  0.198E+00  0.633E-01  0.211E-01  0.141E+00  0.211E-01  0.141E+00  0.198E+00  0.633E-01  0.211E-01  0.141E+00
  12.240  0.502E+00  0.576E+00  0.219E+00  0.713E-01  0.215E-01  0.145E+00  0.215E-01  0.145E+00  0.219E+00  0.713E-01  0.215E-01  0.145E+00
  12.260  0.546E+00  0.601E+00  0.240E+00  0.795E-01  0.218E-01  0.147E+00  0.218E-01  0.147E+00  0.240E+00  0.795E-01  0.218E-01  0.147E+00
  12.280  0.589E+00  0.624E+00  0.262E+00  0.876E-01  0.220E-01  0.150E+00  0.220E-01  0.150E+00  0.262E+00  0.876E-01  0.220E-01  0.150E+00
  12.300  0.631E+00  0.644E+00  0.282E+00  0.952E-01  0.223E-01  0.151E+00  0.223E-01  0.151E+00  0.282E+00  0.952E-01  0.223E-01  0.151E+00
  12.320  0.668E+00  0.661E+00  0.300E+00  0.102E+00  0.224E-01  0.152E+00  0.224E-01  0.152E+00  0.300E+00  0.102E+00  0.224E-01  0.152E+00
  12.340  0.701E+00  0.673E+00  0.317E+00  0.108E+00  0.226E-01  0.152E+00  0.226E-01  0.152E+00  0.317E+00  0.108E+00  0.226E-01  0.152E+00
  12.360  0.728E+00  0.679E+00  0.330E+00  0.112E+00  0.228E-01  0.152E+00  0.228E-01  0.152E+00  0.330E+00  0.112E+00  0.228E-01  0.152E+00
  12.380  0.747E+00  0.679E+00  0.339E+00  0.115E+00  0.229E-01  0.149E+00  0.229E-01  0.149E+00  0.339E+00  0.115E+00  0.229E-01  0.149E+00
  12.400  0.759E+00  0.672E+00  0.345E+00  0.117E+00  0.230E-01  0.146E+00  0.230E-01  0.146E+00  0.345E+00  0.117E+00  0.230E-01  0.146E+00
  12.420  0.762E+00  0.658E+00  0.346E+00  0.117E+00  0.230E-01  0.141E+00  0.230E-01  0.141E+00  0.346E+00  0.117E+00  0.230E-01  0.141E+00
  12.440  0.757E+00  0.637E+00  0.344E+00  0.116E+00  0.230E-01  0.135E+00  0.230E-01  0.135E+00  0.344E+00  0.116E+00  0.230E-01  0.135E+00
  12.460  0.744E+00  0.610E+00  0.338E+00  0.114E+00  0.228E-01  0.128E+00  0.228E-01  0.128E+00  0.338E+00  0.114E+00  0.228E-01  0.128E+00
  12.480  0.725E+00  0.578E+00  0.329E+00  0.110E+00  0.225E-01  0.119E+00  0.225E-01  0.119E+00  0.329E+00  0.110E+00  0.225E-01  0.119E+00
  12.500  0.701E+00  0.543E+00  0.318E+00  0.106E+00  0.221E-01  0.111E+00  0.221E-01  0.111E+00  0.318E+00  0.106E+00  0.221E-01  0.111E+00
  12.520  0.674E+00  0.507E+00  0.305E+00  0.101E+00  0.215E-01  0.102E+00  0.215E-01  0.102E+00  0.305E+00  0.101E+00  0.215E-01  0.102E+00
  12.540  0.644E+00  0.470E+00  0.291E+00  0.954E-01  0.208E-01  0.931E-01  0.208E-01  0.931E-01  0.291E+00  0.954E-01  0.208E-01  0.931E-01
  12.560  0.614E+00  0.435E+00  0.277E+00  0.898E-01  0.201E-01  0.850E-01  0.201E-01  0.850E-01  0.277E+00  0.898E-01  0.201E-01  0.850E-01
  12.580  0.585E+00  0.401E+00  0.263E+00  0.841E-01  0.193E-01  0.777E-01  0.193E-01  0.777E-01  0.263E+00  0.841E-01  0.193E-01  0.777E-01
  12.600  0.556E+00  0.371E+00  0.250E+00  0.785E-01  0.185E-01  0.712E-01  0.185E-01  0.712E-01  0.250E+00  0.785E-01  0.185E-01  0.712E-01
  12.620  0.529E+00  0.342E+00  0.238E+00  0.729E-01  0.176E-01  0.655E-01  0.176E-01  0.655E-01  0.238E+00  0.729E-01  0.176E-01  0.655E-01
  12.640  0.502E+00  0.316E+00  0.226E+00  0.673E-01  0.166E-01  0.606E-01  0.166E-01  0.606E-01  0.226E+00  0.673E-01  0.166E-01  0.606E-01
  12.660  0.476E+00  0.292E+00  0.214E+00  0.617E-01  0.157E-01  0.563E-01  0.157E-01  0.563E-01  0.214E+00  0.617E-01  0.157E-01  0.563E-01
  12.680  0.449E+00  0.269E+00  0.203E+00  0.561E-01  0.146E-01  0.524E-01  0.146E-01  0.524E-01  0.203E+00  0.561E-01  0.146E-01  0.524E-01
  12.700  0.422E+00  0.247E+00  0.191E+00  0.505E-01  0.135E-01  0.488E-01  0.135E-01  0.488E-01  0.191E+00  0.505E-01  0.135E-01  0.488E-01
  12.720  0.394E+00  0.226E+00  0.178E+00  0.449E-01  0.124E-01  0.454E-01  0.124E-01  0.454E-01  0.178E+00  0.449E-01  0.124E-01  0.454E-01
  12.740  0.365E+00  0.205E+00  0.166E+00  0.395E-01  0.112E-01  0.420E-01  0.112E-01  0.420E-01  0.166E+00  0.395E-01  0.112E-01  0.420E-01
  12.760  0.336E+00  0.185E+00  0.153E+00  0.343E-01  0.101E-01  0.387E-01  0.101E-01  0.387E-01  0.153E+00  0.343E-01  0.101E-01  0.387E-01
  12.780  0.307E+00  0.165E+00  0.140E+00  0.295E-01  0.895E-02  0.355E-01  0.895E-02  0.355E-01  0.140E+00  0.295E-01  0.895E-02  0.355E-01
  12.800  0.278E+00  0.147E+00  0.127E+00  0.250E-01  0.787E-02  0.322E-01  0.787E-02  0.322E-01  0.127E+00  0.250E-01  0.787E-02  0.322E-01
  12.820  0.250E+00  0.129E+00  0.115E+00  0.211E-01  0.687E-02  0.291E-01  0.687E-02  0.291E-01  0.115E+00  0.211E-01  0.687E-02  0.291E-01
  12.840  0.223E+00  0.113E+00  0.103E+00  0.176E-01  0.595E-02  0.260E-01  0.595E-02  0.260E-01  0.103E+00  0.176E-01  0.595E-02  0.260E-01
  12.860  0.198E+00  0.982E-01  0.913E-01  0.146E-01  0.512E-02  0.230E-01  0.512E-02  0.230E-01  0.913E-01  0.146E-01  0.512E-02  0.230E-01
  12.880  0.174E+00  0.845E-01  0.804E-01  0.120E-01  0.438E-02  0.202E-01  0.438E-02  0.202E-01  0.804E-01  0.120E-01  0.438E-02  0.202E-01
  12.900  0.152E+00  0.720E-01  0.703E-01  0.981E-02  0.373E-02  0.174E-01  0.373E-02  0.174E-01  0.703E-01  0.981E-02  0.373E-02  0.174E-01
  12.920  0.131E+00  0.607E-01  0.610E-01  0.799E-02  0.316E-02  0.149E-01  0.316E-02  0.149E-01  0.610E-01  0.799E-02  0.316E-02  0.149E-01
  12.940  0.113E+00  0.507E-01  0.525E-01  0.648E-02  0.268E-02  0.126E-01  0.268E-02  0.126E-01  0.525E-01  0.648E-02  0.268E-02  0.126E-01
  12.960  0.967E-01  0.418E-01  0.450E-01  0.521E-02  0.226E-02  0.105E-01  0.226E-02  0.105E-01  0.450E-01  0.521E-02  0.226E-02  0.105E-01
  12.980  0.824E-01  0.342E-01  0.384E-01  0.417E-02  0.191E-02  0.861E-02  0.191E-02  0.861E-02  0.384E-01  0.417E-02  0.191E-02  0.861E-02
  13.000  0.701E-01  0.276E-01  0.326E-01  0.330E-02  0.162E-02  0.700E-02  0.162E-02  0.700E-02  0.326E-01  0.330E-02  0.162E-02  0.700E-02
  13.020  0.597E-01  0.221E-01  0.278E-01  0.260E-02  0.138E-02  0.564E-02  0.138E-02  0.564E-02  0.278E-01  0.260E-02  0.138E-02  0.564E-02
  13.040  0.508E-01  0.176E-01  0.236E-01  0.202E-02  0.119E-02  0.450E-02  0.119E-02  0.450E-02  0.236E-01  0.202E-02  0.119E-02  0.450E-02
  13.060  0.433E-01  0.138E-01  0.201E-01  0.156E-02  0.103E-02  0.357E-02  0.103E-02  0.357E-02  0.201E-01  0.156E-02  0.103E-02  0.357E-02
  13.080  0.369E-01  0.108E-01  0.171E-01  0.119E-02  0.901E-03  0.281E-02  0.901E-03  0.281E-02  0.171E-01  0.119E-02  0.901E-03  0.281E-02
  13.100  0.313E-01  0.838E-02  0.145E-01  0.895E-03  0.786E-03  0.220E-02  0.786E-03  0.220E-02  0.145E-01  0.895E-03  0.786E-03  0.220E-02
  13.120  0.263E-01  0.643E-02  0.121E-01  0.668E-03  0.681E-03  0.170E-02  0.681E-03  0.170E-02  0.121E-01  0.668E-03  0.681E-03  0.170E-02
  13.140  0.219E-01  0.487E-02  0.101E-01  0.492E-03  0.582E-03  0.130E-02  0.582E-03  0.130E-02  0.101E-01  0.492E-03  0.582E-03  0.130E-02
  13.160  0.178E-01  0.364E-02  0.817E-02  0.358E-03  0.489E-03  0.976E-03  0.489E-03  0.976E-03  0.817E-02  0.358E-03  0.489E-03  0.976E-03
  13.180  0.142E-01  0.267E-02  0.650E-02  0.256E-03  0.401E-03  0.721E-03  0.401E-03  0.721E-03  0.650E-02  0.256E-03  0.401E-03  0.721E-03
  13.200  0.110E-01  0.192E-02  0.504E-02  0.180E-03  0.319E-03  0.521E-03  0.319E-03  0.521E-03  0.504E-02  0.180E-03  0.319E-03  0.521E-03
  13.220  0.834E-02  0.135E-02  0.380E-02  0.123E-03  0.247E-03  0.367E-03  0.247E-03  0.367E-03  0.380E-02  0.123E-03  0.247E-03  0.367E-03
  13.240  0.610E-02  0.922E-03  0.277E-02  0.827E-04  0.184E-03  0.252E-03  0.184E-03  0.252E-03  0.277E-02  0.827E-04  0.184E-03  0.252E-03
  13.260  0.432E-02  0.612E-03  0.196E-02  0.539E-04  0.133E-03  0.168E-03  0.133E-03  0.168E-03  0.196E-02  0.539E-04  0.133E-03  0.168E-03
  13.280  0.295E-02  0.394E-03  0.134E-02  0.341E-04  0.924E-04  0.109E-03  0.924E-04  0.109E-03  0.134E-02  0.341E-04  0.924E-04  0.109E-03
  13.300  0.195E-02  0.246E-03  0.882E-03  0.209E-04  0.619E-04  0.681E-04  0.619E-04  0.681E-04  0.882E-03  0.209E-04  0.619E-04  0.681E-04
  13.320  0.124E-02  0.148E-03  0.560E-03  0.124E-04  0.399E-04  0.412E-04  0.399E-04  0.412E-04  0.560E-03  0.124E-04  0.399E-04  0.412E-04
  13.340  0.760E-03  0.864E-04  0.343E-03  0.707E-05  0.247E-04  0.241E-04  0.247E-04  0.241E-04  0.343E-03  0.707E-05  0.247E-04  0.241E-04
  13.360  0.449E-03  0.486E-04  0.202E-03  0.389E-05  0.148E-04  0.136E-04  0.148E-04  0.136E-04  0.202E-03  0.389E-05  0.148E-04  0.136E-04
  13.380  0.255E-03  0.263E-04  0.115E-03  0.206E-05  0.846E-05  0.740E-05  0.846E-05  0.740E-05  0.115E-03  0.206E-05  0.846E-05  0.740E-05
  13.400  0.139E-03  0.137E-04  0.626E-04  0.105E-05  0.466E-05  0.388E-05  0.466E-05  0.388E-05  0.626E-04  0.105E-05  0.466E-05  0.388E-05
  13.420  0.730E-04  0.691E-05  0.328E-04  0.513E-06  0.246E-05  0.196E-05  0.246E-05  0.196E-05  0.328E-04  0.513E-06  0.246E-05  0.196E-05
  13.440  0.369E-04  0.335E-05  0.166E-04  0.241E-06  0.125E-05  0.954E-06  0.125E-05  0.954E-06  0.166E-04  0.241E-06  0.125E-05  0.954E-06
  13.460  0.179E-04  0.156E-05  0.802E-05  0.109E-06  0.611E-06  0.447E-06  0.611E-06  0.447E-06  0.802E-05  0.109E-06  0.611E-06  0.447E-06
  13.480  0.833E-05  0.699E-06  0.374E-05  0.471E-07  0.287E-06  0.202E-06  0.287E-06  0.202E-06  0.374E-05  0.471E-07  0.287E-06  0.202E-06
  13.500  0.373E-05  0.301E-06  0.167E-05  0.195E-07  0.129E-06  0.874E-07  0.129E-06  0.874E-07  0.167E-05  0.195E-07  0.129E-06  0.874E-07
  13.520  0.160E-05  0.125E-06  0.718E-06  0.778E-08  0.557E-07  0.365E-07  0.557E-07  0.365E-07  0.718E-06  0.778E-08  0.557E-07  0.365E-07
  13.540  0.662E-06  0.498E-07  0.296E-06  0.297E-08  0.231E-07  0.146E-07  0.231E-07  0.146E-07  0.296E-06  0.297E-08  0.231E-07  0.146E-07
  13.560  0.262E-06  0.191E-07  0.117E-06  0.109E-08  0.918E-08  0.563E-08  0.918E-08  0.563E-08  0.117E-06  0.109E-08  0.918E-08  0.563E-08
  13.580  0.997E-07  0.702E-08  0.446E-07  0.382E-09  0.350E-08  0.208E-08  0.350E-08  0.208E-08  0.446E-07  0.382E-09  0.350E-08  0.208E-08
  13.600  0.364E-07  0.248E-08  0.163E-07  0.128E-09  0.128E-08  0.741E-09  0.128E-08  0.741E-09  0.163E-07  0.128E-09  0.128E-08  0.741E-09
  13.620  0.127E-07  0.842E-09  0.570E-08  0.413E-10  0.451E-09  0.253E-09  0.451E-09  0.253E-09  0.570E-08  0.413E-10  0.451E-09  0.253E-09
  13.640  0.428E-08  0.275E-09  0.191E-08  0.128E-10  0.152E-09  0.831E-10  0.152E-09  0.831E-10  0.191E-08  0.128E-10  0.152E-09  0.831E-10
  13.660  0.138E-08  0.860E-10  0.616E-09  0.378E-11  0.491E-10  0.261E-10  0.491E-10  0.261E-10  0.616E-09  0.378E-11  0.491E-10  0.261E-10
  13.680  0.427E-09  0.258E-10  0.190E-09  0.107E-11  0.152E-10  0.790E-11  0.152E-10  0.790E-11  0.190E-09  0.107E-11  0.152E-10  0.790E-11
  13.700  0.126E-09  0.746E-11  0.564E-10  0.291E-12  0.452E-11  0.229E-11  0.452E-11  0.229E-11  0.564E-10  0.291E-12  0.452E-11  0.229E-11
  13.720  0.359E-10  0.206E-11  0.160E-10  0.758E-13  0.129E-11  0.637E-12  0.129E-11  0.637E-12  0.160E-10  0.758E-13  0.129E-11  0.637E-12
  13.740  0.980E-11  0.547E-12  0.437E-11  0.188E-13  0.352E-12  0.170E-12  0.352E-12  0.170E-12  0.437E-11  0.188E-13  0.352E-12  0.170E-12
  13.760  0.256E-11  0.139E-12  0.114E-11  0.448E-14  0.921E-13  0.434E-13  0.921E-13  0.434E-13  0.114E-11  0.448E-14  0.921E-13  0.434E-13
  13.780  0.642E-12  0.340E-13  0.286E-12  0.103E-14  0.231E-13  0.107E-13  0.231E-13  0.107E-13  0.286E-12  0.103E-14  0.231E-13  0.107E-13
  13.800  0.148E-12  0.687E-14  0.658E-13  0.106E-15  0.538E-14  0.222E-14  0.538E-14  0.222E-14  0.658E-13  0.106E-15  0.538E-14  0.222E-14
  13.820  0.333E-13  0.152E-14  0.148E-13  0.105E-18  0.121E-14  0.506E-15  0.121E-14  0.506E-15  0.148E-13  0.105E-18  0.121E-14  0.506E-15
  13.840  0.366E-14  0.743E-33  0.162E-14  0.208E-33  0.143E-15  0.109E-33  0.143E-15  0.109E-33  0.162E-14  0.208E-33  0.143E-15  0.109E-33
  13.860  0.000E+00  0.000E+00  0.000E+00  0.000E+00  0.000E+00  0.000E+00  0.000E+00  0.000E+00  0.000E+00  0.000E+00  0.000E+00  0.000E+00
  13.880  0.000E+00  0.000E+00  0.000E+00  0.000E+00  0.000E+00  0.000E+00  0.000E+00  0.000E+00  0.000E+00  0.000E+00  0.000E+00  0.000E+00
  13.900  0.000E+00  0.000E+00  0.000E+00  0.000E+00  0.000E+00  0.000E+00  0.000E+00  0.000E+00  0.000E+00  0.000E+00  0.000E+00  0.000E+00
  13.920  0.000E+00  0.000E+00  0.000E+00  0.000E+00  0.000E+00  0.000E+00  0.000E+00  0.000E+00  0.000E+00  0.000E+00  0.000E+00  0.000E+00
  13.940  0.000E+00  0.000E+00  0.000E+00  0.000E+00  0.000E+00  0.000E+00  0.000E+00  0.000E+00  0.000E+00  0.000E+00  0.000E+00  0.000E+00
  13.960  0.000E+00  0.000E+00  0.000E+00  0.000E+00  0.000E+00  0.000E+00  0.000E+00  0.000E+00  0.000E+00  0.000E+00  0.000E+00  0.000E+00
  13.980  0.000E+00  0.000E+00  0.000E+00  0.000E+00  0.000E+00  0.000E+00  0.000E+00  0.000E+00  0.000E+00  0.000E+00  0.000E+00  0.000E+00
  14.000  0.000E+00  0.000E+00  0.000E+00  0.000E+00  0.000E+00  0.000E+00  0.000E+00  0.000E+00  0.000E+00  0.000E+00  0.000E+00  0.000E+00
  14.020  0.000E+00  0.000E+00  0.000E+00  0.000E+00  0.000E+00  0.000E+00  0.000E+00  0.000E+00  0.000E+00  0.000E+00  0.000E+00  0.000E+00
  14.040  0.000E+00  0.000E+00  0.000E+00  0.000E+00  0.000E+00  0.000E+00  0.000E+00  0.000E+00  0.000E+00  0.000E+00  0.000E+00  0.000E+00
  14.060  0.000E+00  0.000E+00  0.000E+00  0.000E+00  0.000E+00  0.000E+00  0.000E+00  0.000E+00  0.000E+00  0.000E+00  0.000E+00  0.000E+00
  14.080  0.000E+00  0.000E+00  0.000E+00  0.000E+00  0.000E+00  0.000E+00  0.000E+00  0.000E+00  0.000E+00  0.000E+00  0.000E+00  0.000E+00
  14.100  0.000E+00  0.000E+00  0.000E+00  0.000E+00  0.000E+00  0.000E+00  0.000E+00  0.000E+00  0.000E+00  0.000E+00  0.000E+00  0.000E+00
  14.120  0.000E+00  0.000E+00  0.000E+00  0.000E+00  0.000E+00  0.000E+00  0.000E+00  0.000E+00  0.000E+00  0.000E+00  0.000E+00  0.000E+00
  14.140  0.000E+00  0.000E+00  0.000E+00  0.000E+00  0.000E+00  0.000E+00  0.000E+00  0.000E+00  0.000E+00  0.000E+00  0.000E+00  0.000E+00
  14.160  0.000E+00  0.000E+00  0.000E+00  0.000E+00  0.000E+00  0.000E+00  0.000E+00  0.000E+00  0.000E+00  0.000E+00  0.000E+00  0.000E+00
  14.180  0.000E+00  0.000E+00  0.000E+00  0.000E+00  0.000E+00  0.000E+00  0.000E+00  0.000E+00  0.000E+00  0.000E+00  0.000E+00  0.000E+00
  14.200  0.000E+00  0.000E+00  0.000E+00  0.000E+00  0.000E+00  0.000E+00  0.000E+00  0.000E+00  0.000E+00  0.000E+00  0.000E+00  0.000E+00
  14.220  0.000E+00  0.000E+00  0.000E+00  0.000E+00  0.000E+00  0.000E+00  0.000E+00  0.000E+00  0.000E+00  0.000E+00  0.000E+00  0.000E+00
  14.240  0.000E+00  0.000E+00  0.000E+00  0.000E+00  0.000E+00  0.000E+00  0.000E+00  0.000E+00  0.000E+00  0.000E+00  0.000E+00  0.000E+00
  14.260  0.000E+00  0.000E+00  0.000E+00  0.000E+00  0.000E+00  0.000E+00  0.000E+00  0.000E+00  0.000E+00  0.000E+00  0.000E+00  0.000E+00
  14.280  0.000E+00  0.000E+00  0.000E+00  0.000E+00  0.000E+00  0.000E+00  0.000E+00  0.000E+00  0.000E+00  0.000E+00  0.000E+00  0.000E+00
  14.300  0.000E+00  0.000E+00  0.000E+00  0.000E+00  0.000E+00  0.000E+00  0.000E+00  0.000E+00  0.000E+00  0.000E+00  0.000E+00  0.000E+00
  14.320  0.000E+00  0.000E+00  0.000E+00  0.000E+00  0.000E+00  0.000E+00  0.000E+00  0.000E+00  0.000E+00  0.000E+00  0.000E+00  0.000E+00
  14.340  0.000E+00  0.000E+00  0.000E+00  0.000E+00  0.000E+00  0.000E+00  0.000E+00  0.000E+00  0.000E+00  0.000E+00  0.000E+00  0.000E+00
  14.360  0.000E+00  0.000E+00  0.000E+00  0.000E+00  0.000E+00  0.000E+00  0.000E+00  0.000E+00  0.000E+00  0.000E+00  0.000E+00  0.000E+00
  14.380  0.000E+00  0.000E+00  0.000E+00  0.000E+00  0.000E+00  0.000E+00  0.000E+00  0.000E+00  0.000E+00  0.000E+00  0.000E+00  0.000E+00
  14.400  0.000E+00  0.000E+00  0.000E+00  0.000E+00  0.000E+00  0.000E+00  0.000E+00  0.000E+00  0.000E+00  0.000E+00  0.000E+00  0.000E+00
  14.420  0.000E+00  0.000E+00  0.000E+00  0.000E+00  0.000E+00  0.000E+00  0.000E+00  0.000E+00  0.000E+00  0.000E+00  0.000E+00  0.000E+00
  14.440  0.000E+00  0.000E+00  0.000E+00  0.000E+00  0.000E+00  0.000E+00  0.000E+00  0.000E+00  0.000E+00  0.000E+00  0.000E+00  0.000E+00
  14.460  0.000E+00  0.000E+00  0.000E+00  0.000E+00  0.000E+00  0.000E+00  0.000E+00  0.000E+00  0.000E+00  0.000E+00  0.000E+00  0.000E+00
  14.480  0.000E+00  0.000E+00  0.000E+00  0.000E+00  0.000E+00  0.000E+00  0.000E+00  0.000E+00  0.000E+00  0.000E+00  0.000E+00  0.000E+00
  14.500  0.000E+00  0.000E+00  0.000E+00  0.000E+00  0.000E+00  0.000E+00  0.000E+00  0.000E+00  0.000E+00  0.000E+00  0.000E+00  0.000E+00
  14.520  0.000E+00  0.000E+00  0.000E+00  0.000E+00  0.000E+00  0.000E+00  0.000E+00  0.000E+00  0.000E+00  0.000E+00  0.000E+00  0.000E+00
  14.540  0.000E+00  0.000E+00  0.000E+00  0.000E+00  0.000E+00  0.000E+00  0.000E+00  0.000E+00  0.000E+00  0.000E+00  0.000E+00  0.000E+00
  14.560  0.000E+00  0.000E+00  0.000E+00  0.000E+00  0.000E+00  0.000E+00  0.000E+00  0.000E+00  0.000E+00  0.000E+00  0.000E+00  0.000E+00
  14.580  0.000E+00  0.000E+00  0.000E+00  0.000E+00  0.000E+00  0.000E+00  0.000E+00  0.000E+00  0.000E+00  0.000E+00  0.000E+00  0.000E+00
  14.600  0.000E+00  0.000E+00  0.000E+00  0.000E+00  0.000E+00  0.000E+00  0.000E+00  0.000E+00  0.000E+00  0.000E+00  0.000E+00  0.000E+00
  14.620  0.000E+00  0.000E+00  0.000E+00  0.000E+00  0.000E+00  0.000E+00  0.000E+00  0.000E+00  0.000E+00  0.000E+00  0.000E+00  0.000E+00
  14.640  0.000E+00  0.000E+00  0.000E+00  0.000E+00  0.000E+00  0.000E+00  0.000E+00  0.000E+00  0.000E+00  0.000E+00  0.000E+00  0.000E+00
  14.660  0.000E+00  0.000E+00  0.000E+00  0.000E+00  0.000E+00  0.000E+00  0.000E+00  0.000E+00  0.000E+00  0.000E+00  0.000E+00  0.000E+00
  14.680  0.000E+00  0.000E+00  0.000E+00  0.000E+00  0.000E+00  0.000E+00  0.000E+00  0.000E+00  0.000E+00  0.000E+00  0.000E+00  0.000E+00
  14.700  0.000E+00  0.000E+00  0.000E+00  0.000E+00  0.000E+00  0.000E+00  0.000E+00  0.000E+00  0.000E+00  0.000E+00  0.000E+00  0.000E+00
  14.720  0.000E+00  0.000E+00  0.000E+00  0.000E+00  0.000E+00  0.000E+00  0.000E+00  0.000E+00  0.000E+00  0.000E+00  0.000E+00  0.000E+00
  14.740  0.000E+00  0.000E+00  0.000E+00  0.000E+00  0.000E+00  0.000E+00  0.000E+00  0.000E+00  0.000E+00  0.000E+00  0.000E+00  0.000E+00
  14.760  0.000E+00  0.000E+00  0.000E+00  0.000E+00  0.000E+00  0.000E+00  0.000E+00  0.000E+00  0.000E+00  0.000E+00  0.000E+00  0.000E+00
  14.780  0.000E+00  0.000E+00  0.000E+00  0.000E+00  0.000E+00  0.000E+00  0.000E+00  0.000E+00  0.000E+00  0.000E+00  0.000E+00  0.000E+00
  14.800  0.000E+00  0.000E+00  0.000E+00  0.000E+00  0.000E+00  0.000E+00  0.000E+00  0.000E+00  0.000E+00  0.000E+00  0.000E+00  0.000E+00
  14.820  0.000E+00  0.000E+00  0.000E+00  0.000E+00  0.000E+00  0.000E+00  0.000E+00  0.000E+00  0.000E+00  0.000E+00  0.000E+00  0.000E+00
  14.840  0.000E+00  0.000E+00  0.000E+00  0.000E+00  0.000E+00  0.000E+00  0.000E+00  0.000E+00  0.000E+00  0.000E+00  0.000E+00  0.000E+00
  14.860  0.000E+00  0.000E+00  0.000E+00  0.000E+00  0.000E+00  0.000E+00  0.000E+00  0.000E+00  0.000E+00  0.000E+00  0.000E+00  0.000E+00
  14.880  0.000E+00  0.000E+00  0.000E+00  0.000E+00  0.000E+00  0.000E+00  0.000E+00  0.000E+00  0.000E+00  0.000E+00  0.000E+00  0.000E+00
  14.900  0.000E+00  0.000E+00  0.000E+00  0.000E+00  0.000E+00  0.000E+00  0.000E+00  0.000E+00  0.000E+00  0.000E+00  0.000E+00  0.000E+00
  14.920  0.000E+00  0.000E+00  0.000E+00  0.000E+00  0.000E+00  0.000E+00  0.000E+00  0.000E+00  0.000E+00  0.000E+00  0.000E+00  0.000E+00
  14.940  0.000E+00  0.000E+00  0.000E+00  0.000E+00  0.000E+00  0.000E+00  0.000E+00  0.000E+00  0.000E+00  0.000E+00  0.000E+00  0.000E+00
  14.960  0.000E+00  0.000E+00  0.000E+00  0.000E+00  0.000E+00  0.000E+00  0.000E+00  0.000E+00  0.000E+00  0.000E+00  0.000E+00  0.000E+00
  14.980  0.838E-17  0.194E-13  0.155E-17  0.971E-14  0.176E-17  0.261E-17  0.176E-17  0.261E-17  0.155E-17  0.971E-14  0.176E-17  0.261E-17
  15.000  0.380E-16  0.880E-13  0.703E-17  0.440E-13  0.797E-17  0.118E-16  0.797E-17  0.118E-16  0.703E-17  0.440E-13  0.797E-17  0.118E-16
  15.020  0.338E-15  0.534E-12  0.569E-16  0.267E-12  0.749E-16  0.103E-15  0.749E-16  0.103E-15  0.569E-16  0.267E-12  0.749E-16  0.103E-15
  15.040  0.145E-14  0.226E-11  0.243E-15  0.113E-11  0.320E-15  0.441E-15  0.320E-15  0.441E-15  0.243E-15  0.113E-11  0.320E-15  0.441E-15
  15.060  0.617E-14  0.923E-11  0.108E-14  0.461E-11  0.134E-14  0.183E-14  0.134E-14  0.183E-14  0.108E-14  0.461E-11  0.134E-14  0.183E-14
  15.080  0.245E-13  0.360E-10  0.429E-14  0.180E-10  0.529E-14  0.725E-14  0.529E-14  0.725E-14  0.429E-14  0.180E-10  0.529E-14  0.725E-14
  15.100  0.932E-13  0.135E-09  0.166E-13  0.672E-10  0.200E-13  0.274E-13  0.200E-13  0.274E-13  0.166E-13  0.672E-10  0.200E-13  0.274E-13
  15.120  0.340E-12  0.482E-09  0.608E-13  0.241E-09  0.727E-13  0.995E-13  0.727E-13  0.995E-13  0.608E-13  0.241E-09  0.727E-13  0.995E-13
  15.140  0.119E-11  0.165E-08  0.215E-12  0.827E-09  0.253E-12  0.346E-12  0.253E-12  0.346E-12  0.215E-12  0.827E-09  0.253E-12  0.346E-12
  15.160  0.399E-11  0.545E-08  0.728E-12  0.272E-08  0.844E-12  0.116E-11  0.844E-12  0.116E-11  0.728E-12  0.272E-08  0.844E-12  0.116E-11
  15.180  0.128E-10  0.172E-07  0.237E-11  0.860E-08  0.270E-11  0.370E-11  0.270E-11  0.370E-11  0.237E-11  0.860E-08  0.270E-11  0.370E-11
  15.200  0.398E-10  0.522E-07  0.743E-11  0.261E-07  0.829E-11  0.114E-10  0.829E-11  0.114E-10  0.743E-11  0.261E-07  0.829E-11  0.114E-10
  15.220  0.118E-09  0.152E-06  0.224E-10  0.758E-07  0.244E-10  0.335E-10  0.244E-10  0.335E-10  0.224E-10  0.758E-07  0.244E-10  0.335E-10
  15.240  0.337E-09  0.423E-06  0.649E-10  0.211E-06  0.691E-10  0.946E-10  0.691E-10  0.946E-10  0.649E-10  0.211E-06  0.691E-10  0.946E-10
  15.260  0.924E-09  0.113E-05  0.181E-09  0.566E-06  0.187E-09  0.257E-09  0.187E-09  0.257E-09  0.181E-09  0.566E-06  0.187E-09  0.257E-09
  15.280  0.244E-08  0.291E-05  0.486E-09  0.146E-05  0.488E-09  0.668E-09  0.488E-09  0.668E-09  0.486E-09  0.146E-05  0.488E-09  0.668E-09
  15.300  0.617E-08  0.718E-05  0.126E-08  0.359E-05  0.122E-08  0.167E-08  0.122E-08  0.167E-08  0.126E-08  0.359E-05  0.122E-08  0.167E-08
  15.320  0.150E-07  0.170E-04  0.313E-08  0.850E-05  0.292E-08  0.400E-08  0.292E-08  0.400E-08  0.313E-08  0.850E-05  0.292E-08  0.400E-08
  15.340  0.352E-07  0.387E-04  0.751E-08  0.193E-04  0.673E-08  0.921E-08  0.673E-08  0.921E-08  0.751E-08  0.193E-04  0.673E-08  0.921E-08
  15.360  0.794E-07  0.845E-04  0.174E-07  0.422E-04  0.149E-07  0.204E-07  0.149E-07  0.204E-07  0.174E-07  0.422E-04  0.149E-07  0.204E-07
  15.380  0.172E-06  0.177E-03  0.387E-07  0.886E-04  0.316E-07  0.432E-07  0.316E-07  0.432E-07  0.387E-07  0.886E-04  0.316E-07  0.432E-07
  15.400  0.360E-06  0.358E-03  0.833E-07  0.179E-03  0.645E-07  0.882E-07  0.645E-07  0.882E-07  0.833E-07  0.179E-03  0.645E-07  0.882E-07
  15.420  0.725E-06  0.693E-03  0.173E-06  0.346E-03  0.127E-06  0.173E-06  0.127E-06  0.173E-06  0.173E-06  0.346E-03  0.127E-06  0.173E-06
  15.440  0.141E-05  0.129E-02  0.346E-06  0.646E-03  0.239E-06  0.326E-06  0.239E-06  0.326E-06  0.346E-06  0.646E-03  0.239E-06  0.326E-06
  15.460  0.263E-05  0.232E-02  0.668E-06  0.116E-02  0.433E-06  0.591E-06  0.433E-06  0.591E-06  0.668E-06  0.116E-02  0.433E-06  0.591E-06
  15.480  0.476E-05  0.400E-02  0.125E-05  0.200E-02  0.755E-06  0.103E-05  0.755E-06  0.103E-05  0.125E-05  0.200E-02  0.755E-06  0.103E-05
  15.500  0.830E-05  0.666E-02  0.225E-05  0.333E-02  0.127E-05  0.173E-05  0.127E-05  0.173E-05  0.225E-05  0.333E-02  0.127E-05  0.173E-05
  15.520  0.140E-04  0.107E-01  0.393E-05  0.533E-02  0.205E-05  0.280E-05  0.205E-05  0.280E-05  0.393E-05  0.533E-02  0.205E-05  0.280E-05
  15.540  0.228E-04  0.165E-01  0.663E-05  0.824E-02  0.319E-05  0.438E-05  0.319E-05  0.438E-05  0.663E-05  0.824E-02  0.319E-05  0.438E-05
  15.560  0.361E-04  0.246E-01  0.108E-04  0.123E-01  0.480E-05  0.660E-05  0.480E-05  0.660E-05  0.108E-04  0.123E-01  0.480E-05  0.660E-05
  15.580  0.553E-04  0.355E-01  0.172E-04  0.177E-01  0.696E-05  0.961E-05  0.696E-05  0.961E-05  0.172E-04  0.177E-01  0.696E-05  0.961E-05
  15.600  0.823E-04  0.495E-01  0.265E-04  0.247E-01  0.977E-05  0.136E-04  0.977E-05  0.136E-04  0.265E-04  0.247E-01  0.977E-05  0.136E-04
  15.620  0.119E-03  0.670E-01  0.397E-04  0.335E-01  0.133E-04  0.186E-04  0.133E-04  0.186E-04  0.397E-04  0.335E-01  0.133E-04  0.186E-04
  15.640  0.168E-03  0.881E-01  0.580E-04  0.440E-01  0.175E-04  0.247E-04  0.175E-04  0.247E-04  0.580E-04  0.440E-01  0.175E-04  0.247E-04
  15.660  0.233E-03  0.113E+00  0.827E-04  0.563E-01  0.224E-04  0.320E-04  0.224E-04  0.320E-04  0.827E-04  0.563E-01  0.224E-04  0.320E-04
  15.680  0.315E-03  0.141E+00  0.115E-03  0.703E-01  0.281E-04  0.405E-04  0.281E-04  0.405E-04  0.115E-03  0.703E-01  0.281E-04  0.405E-04
  15.700  0.419E-03  0.172E+00  0.158E-03  0.861E-01  0.344E-04  0.503E-04  0.344E-04  0.503E-04  0.158E-03  0.861E-01  0.344E-04  0.503E-04
  15.720  0.548E-03  0.207E+00  0.212E-03  0.103E+00  0.414E-04  0.615E-04  0.414E-04  0.615E-04  0.212E-03  0.103E+00  0.414E-04  0.615E-04
  15.740  0.709E-03  0.246E+00  0.281E-03  0.123E+00  0.492E-04  0.740E-04  0.492E-04  0.740E-04  0.281E-03  0.123E+00  0.492E-04  0.740E-04
  15.760  0.906E-03  0.288E+00  0.366E-03  0.144E+00  0.579E-04  0.883E-04  0.579E-04  0.883E-04  0.366E-03  0.144E+00  0.579E-04  0.883E-04
  15.780  0.115E-02  0.335E+00  0.471E-03  0.168E+00  0.678E-04  0.105E-03  0.678E-04  0.105E-03  0.471E-03  0.168E+00  0.678E-04  0.105E-03
  15.800  0.143E-02  0.389E+00  0.598E-03  0.194E+00  0.791E-04  0.123E-03  0.791E-04  0.123E-03  0.598E-03  0.194E+00  0.791E-04  0.123E-03
  15.820  0.178E-02  0.449E+00  0.750E-03  0.224E+00  0.921E-04  0.144E-03  0.921E-04  0.144E-03  0.750E-03  0.224E+00  0.921E-04  0.144E-03
  15.840  0.217E-02  0.517E+00  0.927E-03  0.258E+00  0.107E-03  0.168E-03  0.107E-03  0.168E-03  0.927E-03  0.258E+00  0.107E-03  0.168E-03
  15.860  0.263E-02  0.594E+00  0.113E-02  0.297E+00  0.124E-03  0.196E-03  0.124E-03  0.196E-03  0.113E-02  0.297E+00  0.124E-03  0.196E-03
  15.880  0.314E-02  0.680E+00  0.136E-02  0.340E+00  0.143E-03  0.226E-03  0.143E-03  0.226E-03  0.136E-02  0.340E+00  0.143E-03  0.226E-03
  15.900  0.370E-02  0.773E+00  0.160E-02  0.386E+00  0.165E-03  0.261E-03  0.165E-03  0.261E-03  0.160E-02  0.386E+00  0.165E-03  0.261E-03
  15.920  0.430E-02  0.874E+00  0.187E-02  0.437E+00  0.188E-03  0.298E-03  0.188E-03  0.298E-03  0.187E-02  0.437E+00  0.188E-03  0.298E-03
  15.940  0.491E-02  0.981E+00  0.214E-02  0.490E+00  0.214E-03  0.340E-03  0.214E-03  0.340E-03  0.214E-02  0.490E+00  0.214E-03  0.340E-03
  15.960  0.554E-02  0.109E+01  0.241E-02  0.545E+00  0.241E-03  0.384E-03  0.241E-03  0.384E-03  0.241E-02  0.545E+00  0.241E-03  0.384E-03
  15.980  0.615E-02  0.120E+01  0.267E-02  0.602E+00  0.269E-03  0.432E-03  0.269E-03  0.432E-03  0.267E-02  0.602E+00  0.269E-03  0.432E-03
  16.000  0.674E-02  0.132E+01  0.292E-02  0.658E+00  0.298E-03  0.483E-03  0.298E-03  0.483E-03  0.292E-02  0.658E+00  0.298E-03  0.483E-03
  16.020  0.730E-02  0.143E+01  0.316E-02  0.714E+00  0.329E-03  0.537E-03  0.329E-03  0.537E-03  0.316E-02  0.714E+00  0.329E-03  0.537E-03
  16.040  0.784E-02  0.154E+01  0.338E-02  0.770E+00  0.361E-03  0.594E-03  0.361E-03  0.594E-03  0.338E-02  0.770E+00  0.361E-03  0.594E-03
  16.060  0.836E-02  0.165E+01  0.359E-02  0.824E+00  0.393E-03  0.653E-03  0.393E-03  0.653E-03  0.359E-02  0.824E+00  0.393E-03  0.653E-03
  16.080  0.888E-02  0.176E+01  0.380E-02  0.878E+00  0.426E-03  0.714E-03  0.426E-03  0.714E-03  0.380E-02  0.878E+00  0.426E-03  0.714E-03
  16.100  0.943E-02  0.186E+01  0.403E-02  0.931E+00  0.460E-03  0.776E-03  0.460E-03  0.776E-03  0.403E-02  0.931E+00  0.460E-03  0.776E-03
  16.120  0.101E-01  0.197E+01  0.429E-02  0.984E+00  0.493E-03  0.838E-03  0.493E-03  0.838E-03  0.429E-02  0.984E+00  0.493E-03  0.838E-03
  16.140  0.108E-01  0.208E+01  0.460E-02  0.104E+01  0.527E-03  0.898E-03  0.527E-03  0.898E-03  0.460E-02  0.104E+01  0.527E-03  0.898E-03
  16.160  0.116E-01  0.218E+01  0.498E-02  0.109E+01  0.558E-03  0.955E-03  0.558E-03  0.955E-03  0.498E-02  0.109E+01  0.558E-03  0.955E-03
  16.180  0.126E-01  0.229E+01  0.544E-02  0.114E+01  0.588E-03  0.101E-02  0.588E-03  0.101E-02  0.544E-02  0.114E+01  0.588E-03  0.101E-02
  16.200  0.139E-01  0.238E+01  0.601E-02  0.119E+01  0.614E-03  0.105E-02  0.614E-03  0.105E-02  0.601E-02  0.119E+01  0.614E-03  0.105E-02
  16.220  0.153E-01  0.247E+01  0.668E-02  0.123E+01  0.635E-03  0.109E-02  0.635E-03  0.109E-02  0.668E-02  0.123E+01  0.635E-03  0.109E-02
  16.240  0.169E-01  0.254E+01  0.746E-02  0.127E+01  0.650E-03  0.111E-02  0.650E-03  0.111E-02  0.746E-02  0.127E+01  0.650E-03  0.111E-02
  16.260  0.186E-01  0.260E+01  0.834E-02  0.130E+01  0.658E-03  0.113E-02  0.658E-03  0.113E-02  0.834E-02  0.130E+01  0.658E-03  0.113E-02
  16.280  0.205E-01  0.265E+01  0.929E-02  0.132E+01  0.659E-03  0.113E-02  0.659E-03  0.113E-02  0.929E-02  0.132E+01  0.659E-03  0.113E-02
  16.300  0.225E-01  0.267E+01  0.103E-01  0.133E+01  0.654E-03  0.112E-02  0.654E-03  0.112E-02  0.103E-01  0.133E+01  0.654E-03  0.112E-02
  16.320  0.245E-01  0.267E+01  0.113E-01  0.133E+01  0.642E-03  0.110E-02  0.642E-03  0.110E-02  0.113E-01  0.133E+01  0.642E-03  0.110E-02
  16.340  0.264E-01  0.265E+01  0.123E-01  0.132E+01  0.625E-03  0.107E-02  0.625E-03  0.107E-02  0.123E-01  0.132E+01  0.625E-03  0.107E-02
  16.360  0.281E-01  0.261E+01  0.131E-01  0.130E+01  0.603E-03  0.103E-02  0.603E-03  0.103E-02  0.131E-01  0.130E+01  0.603E-03  0.103E-02
  16.380  0.295E-01  0.255E+01  0.139E-01  0.127E+01  0.578E-03  0.988E-03  0.578E-03  0.988E-03  0.139E-01  0.127E+01  0.578E-03  0.988E-03
  16.400  0.306E-01  0.247E+01  0.145E-01  0.123E+01  0.549E-03  0.939E-03  0.549E-03  0.939E-03  0.145E-01  0.123E+01  0.549E-03  0.939E-03
  16.420  0.312E-01  0.237E+01  0.148E-01  0.118E+01  0.518E-03  0.885E-03  0.518E-03  0.885E-03  0.148E-01  0.118E+01  0.518E-03  0.885E-03
  16.440  0.314E-01  0.226E+01  0.150E-01  0.113E+01  0.485E-03  0.828E-03  0.485E-03  0.828E-03  0.150E-01  0.113E+01  0.485E-03  0.828E-03
  16.460  0.312E-01  0.214E+01  0.149E-01  0.107E+01  0.452E-03  0.770E-03  0.452E-03  0.770E-03  0.149E-01  0.107E+01  0.452E-03  0.770E-03
  16.480  0.306E-01  0.200E+01  0.147E-01  0.100E+01  0.418E-03  0.710E-03  0.418E-03  0.710E-03  0.147E-01  0.100E+01  0.418E-03  0.710E-03
  16.500  0.296E-01  0.187E+01  0.142E-01  0.932E+00  0.384E-03  0.651E-03  0.384E-03  0.651E-03  0.142E-01  0.932E+00  0.384E-03  0.651E-03
  16.520  0.283E-01  0.173E+01  0.136E-01  0.863E+00  0.352E-03  0.594E-03  0.352E-03  0.594E-03  0.136E-01  0.863E+00  0.352E-03  0.594E-03
  16.540  0.268E-01  0.159E+01  0.129E-01  0.795E+00  0.320E-03  0.539E-03  0.320E-03  0.539E-03  0.129E-01  0.795E+00  0.320E-03  0.539E-03
  16.560  0.251E-01  0.146E+01  0.121E-01  0.728E+00  0.291E-03  0.486E-03  0.291E-03  0.486E-03  0.121E-01  0.728E+00  0.291E-03  0.486E-03
  16.580  0.232E-01  0.133E+01  0.112E-01  0.664E+00  0.263E-03  0.437E-03  0.263E-03  0.437E-03  0.112E-01  0.664E+00  0.263E-03  0.437E-03
  16.600  0.213E-01  0.121E+01  0.103E-01  0.602E+00  0.237E-03  0.391E-03  0.237E-03  0.391E-03  0.103E-01  0.602E+00  0.237E-03  0.391E-03
  16.620  0.193E-01  0.108E+01  0.932E-02  0.542E+00  0.213E-03  0.348E-03  0.213E-03  0.348E-03  0.932E-02  0.542E+00  0.213E-03  0.348E-03
  16.640  0.172E-01  0.967E+00  0.834E-02  0.483E+00  0.189E-03  0.307E-03  0.189E-03  0.307E-03  0.834E-02  0.483E+00  0.189E-03  0.307E-03
  16.660  0.152E-01  0.851E+00  0.736E-02  0.425E+00  0.167E-03  0.269E-03  0.167E-03  0.269E-03  0.736E-02  0.425E+00  0.167E-03  0.269E-03
  16.680  0.132E-01  0.739E+00  0.640E-02  0.369E+00  0.145E-03  0.232E-03  0.145E-03  0.232E-03  0.640E-02  0.369E+00  0.145E-03  0.232E-03
  16.700  0.113E-01  0.630E+00  0.546E-02  0.315E+00  0.125E-03  0.198E-03  0.125E-03  0.198E-03  0.546E-02  0.315E+00  0.125E-03  0.198E-03
  16.720  0.947E-02  0.528E+00  0.458E-02  0.264E+00  0.105E-03  0.166E-03  0.105E-03  0.166E-03  0.458E-02  0.264E+00  0.105E-03  0.166E-03
  16.740  0.777E-02  0.432E+00  0.376E-02  0.216E+00  0.869E-04  0.137E-03  0.869E-04  0.137E-03  0.376E-02  0.216E+00  0.869E-04  0.137E-03
  16.760  0.624E-02  0.346E+00  0.301E-02  0.173E+00  0.703E-04  0.110E-03  0.703E-04  0.110E-03  0.301E-02  0.173E+00  0.703E-04  0.110E-03
  16.780  0.489E-02  0.270E+00  0.236E-02  0.135E+00  0.556E-04  0.871E-04  0.556E-04  0.871E-04  0.236E-02  0.135E+00  0.556E-04  0.871E-04
  16.800  0.373E-02  0.206E+00  0.180E-02  0.103E+00  0.430E-04  0.674E-04  0.430E-04  0.674E-04  0.180E-02  0.103E+00  0.430E-04  0.674E-04
  16.820  0.277E-02  0.153E+00  0.134E-02  0.762E-01  0.324E-04  0.510E-04  0.324E-04  0.510E-04  0.134E-02  0.762E-01  0.324E-04  0.510E-04
  16.840  0.200E-02  0.110E+00  0.963E-03  0.549E-01  0.238E-04  0.380E-04  0.238E-04  0.380E-04  0.963E-03  0.549E-01  0.238E-04  0.380E-04
  16.860  0.140E-02  0.771E-01  0.673E-03  0.385E-01  0.171E-04  0.278E-04  0.171E-04  0.278E-04  0.673E-03  0.385E-01  0.171E-04  0.278E-04
  16.880  0.948E-03  0.525E-01  0.456E-03  0.262E-01  0.120E-04  0.202E-04  0.120E-04  0.202E-04  0.456E-03  0.262E-01  0.120E-04  0.202E-04
  16.900  0.623E-03  0.349E-01  0.299E-03  0.174E-01  0.833E-05  0.147E-04  0.833E-05  0.147E-04  0.299E-03  0.174E-01  0.833E-05  0.147E-04
  16.920  0.396E-03  0.226E-01  0.189E-03  0.113E-01  0.570E-05  0.108E-04  0.570E-05  0.108E-04  0.189E-03  0.113E-01  0.570E-05  0.108E-04
  16.940  0.244E-03  0.144E-01  0.116E-03  0.717E-02  0.390E-05  0.803E-05  0.390E-05  0.803E-05  0.116E-03  0.717E-02  0.390E-05  0.803E-05
  16.960  0.145E-03  0.898E-02  0.685E-04  0.448E-02  0.269E-05  0.610E-05  0.269E-05  0.610E-05  0.685E-04  0.448E-02  0.269E-05  0.610E-05
  16.980  0.839E-04  0.556E-02  0.391E-04  0.277E-02  0.191E-05  0.474E-05  0.191E-05  0.474E-05  0.391E-04  0.277E-02  0.191E-05  0.474E-05
  17.000  0.473E-04  0.343E-02  0.216E-04  0.171E-02  0.141E-05  0.376E-05  0.141E-05  0.376E-05  0.216E-04  0.171E-02  0.141E-05  0.376E-05
  17.020  0.263E-04  0.213E-02  0.115E-04  0.106E-02  0.112E-05  0.304E-05  0.112E-05  0.304E-05  0.115E-04  0.106E-02  0.112E-05  0.304E-05
  17.040  0.148E-04  0.133E-02  0.597E-05  0.662E-03  0.953E-06  0.251E-05  0.953E-06  0.251E-05  0.597E-05  0.662E-03  0.953E-06  0.251E-05
  17.060  0.882E-05  0.850E-03  0.309E-05  0.422E-03  0.882E-06  0.214E-05  0.882E-06  0.214E-05  0.309E-05  0.422E-03  0.882E-06  0.214E-05
  17.080  0.603E-05  0.563E-03  0.170E-05  0.278E-03  0.876E-06  0.190E-05  0.876E-06  0.190E-05  0.170E-05  0.278E-03  0.876E-06  0.190E-05
  17.100  0.503E-05  0.401E-03  0.114E-05  0.198E-03  0.916E-06  0.178E-05  0.916E-06  0.178E-05  0.114E-05  0.198E-03  0.916E-06  0.178E-05
  17.120  0.508E-05  0.327E-03  0.106E-05  0.161E-03  0.987E-06  0.178E-05  0.987E-06  0.178E-05  0.106E-05  0.161E-03  0.987E-06  0.178E-05
  17.140  0.580E-05  0.318E-03  0.128E-05  0.156E-03  0.108E-05  0.187E-05  0.108E-05  0.187E-05  0.128E-05  0.156E-03  0.108E-05  0.187E-05
  17.160  0.703E-05  0.364E-03  0.172E-05  0.179E-03  0.120E-05  0.205E-05  0.120E-05  0.205E-05  0.172E-05  0.179E-03  0.120E-05  0.205E-05
  17.180  0.868E-05  0.456E-03  0.233E-05  0.224E-03  0.134E-05  0.234E-05  0.134E-05  0.234E-05  0.233E-05  0.224E-03  0.134E-05  0.234E-05
  17.200  0.107E-04  0.587E-03  0.309E-05  0.289E-03  0.152E-05  0.273E-05  0.152E-05  0.273E-05  0.309E-05  0.289E-03  0.152E-05  0.273E-05
  17.220  0.131E-04  0.751E-03  0.396E-05  0.371E-03  0.174E-05  0.323E-05  0.174E-05  0.323E-05  0.396E-05  0.371E-03  0.174E-05  0.323E-05
  17.240  0.159E-04  0.937E-03  0.490E-05  0.463E-03  0.203E-05  0.384E-05  0.203E-05  0.384E-05  0.490E-05  0.463E-03  0.203E-05  0.384E-05
  17.260  0.189E-04  0.114E-02  0.585E-05  0.561E-03  0.239E-05  0.456E-05  0.239E-05  0.456E-05  0.585E-05  0.561E-03  0.239E-05  0.456E-05
  17.280  0.220E-04  0.133E-02  0.677E-05  0.658E-03  0.281E-05  0.537E-05  0.281E-05  0.537E-05  0.677E-05  0.658E-03  0.281E-05  0.537E-05
  17.300  0.251E-04  0.151E-02  0.760E-05  0.748E-03  0.330E-05  0.622E-05  0.330E-05  0.622E-05  0.760E-05  0.748E-03  0.330E-05  0.622E-05
  17.320  0.281E-04  0.167E-02  0.833E-05  0.825E-03  0.381E-05  0.707E-05  0.381E-05  0.707E-05  0.833E-05  0.825E-03  0.381E-05  0.707E-05
  17.340  0.309E-04  0.179E-02  0.894E-05  0.884E-03  0.434E-05  0.786E-05  0.434E-05  0.786E-05  0.894E-05  0.884E-03  0.434E-05  0.786E-05
  17.360  0.334E-04  0.187E-02  0.945E-05  0.924E-03  0.484E-05  0.853E-05  0.484E-05  0.853E-05  0.945E-05  0.924E-03  0.484E-05  0.853E-05
  17.380  0.356E-04  0.192E-02  0.988E-05  0.945E-03  0.528E-05  0.904E-05  0.528E-05  0.904E-05  0.988E-05  0.945E-03  0.528E-05  0.904E-05
  17.400  0.374E-04  0.192E-02  0.103E-04  0.947E-03  0.564E-05  0.938E-05  0.564E-05  0.938E-05  0.103E-04  0.947E-03  0.564E-05  0.938E-05
  17.420  0.389E-04  0.189E-02  0.106E-04  0.933E-03  0.590E-05  0.952E-05  0.590E-05  0.952E-05  0.106E-04  0.933E-03  0.590E-05  0.952E-05
  17.440  0.399E-04  0.184E-02  0.108E-04  0.905E-03  0.607E-05  0.949E-05  0.607E-05  0.949E-05  0.108E-04  0.905E-03  0.607E-05  0.949E-05
  17.460  0.405E-04  0.176E-02  0.110E-04  0.866E-03  0.615E-05  0.932E-05  0.615E-05  0.932E-05  0.110E-04  0.866E-03  0.615E-05  0.932E-05
  17.480  0.407E-04  0.166E-02  0.111E-04  0.818E-03  0.616E-05  0.906E-05  0.616E-05  0.906E-05  0.111E-04  0.818E-03  0.616E-05  0.906E-05
  17.500  0.405E-04  0.155E-02  0.110E-04  0.761E-03  0.615E-05  0.878E-05  0.615E-05  0.878E-05  0.110E-04  0.761E-03  0.615E-05  0.878E-05
  17.520  0.402E-04  0.143E-02  0.109E-04  0.700E-03  0.614E-05  0.854E-05  0.614E-05  0.854E-05  0.109E-04  0.700E-03  0.614E-05  0.854E-05
  17.540  0.400E-04  0.130E-02  0.107E-04  0.636E-03  0.619E-05  0.842E-05  0.619E-05  0.842E-05  0.107E-04  0.636E-03  0.619E-05  0.842E-05
  17.560  0.403E-04  0.118E-02  0.106E-04  0.576E-03  0.636E-05  0.849E-05  0.636E-05  0.849E-05  0.106E-04  0.576E-03  0.636E-05  0.849E-05
  17.580  0.416E-04  0.108E-02  0.108E-04  0.524E-03  0.668E-05  0.883E-05  0.668E-05  0.883E-05  0.108E-04  0.524E-03  0.668E-05  0.883E-05
  17.600  0.444E-04  0.100E-02  0.114E-04  0.488E-03  0.718E-05  0.946E-05  0.718E-05  0.946E-05  0.114E-04  0.488E-03  0.718E-05  0.946E-05
  17.620  0.491E-04  0.977E-03  0.128E-04  0.473E-03  0.786E-05  0.104E-04  0.786E-05  0.104E-04  0.128E-04  0.473E-03  0.786E-05  0.104E-04
  17.640  0.561E-04  0.101E-02  0.150E-04  0.485E-03  0.872E-05  0.116E-04  0.872E-05  0.116E-04  0.150E-04  0.485E-03  0.872E-05  0.116E-04
  17.660  0.655E-04  0.110E-02  0.182E-04  0.528E-03  0.970E-05  0.131E-04  0.970E-05  0.131E-04  0.182E-04  0.528E-03  0.970E-05  0.131E-04
  17.680  0.771E-04  0.125E-02  0.225E-04  0.602E-03  0.107E-04  0.147E-04  0.107E-04  0.147E-04  0.225E-04  0.602E-03  0.107E-04  0.147E-04
  17.700  0.905E-04  0.146E-02  0.277E-04  0.705E-03  0.117E-04  0.163E-04  0.117E-04  0.163E-04  0.277E-04  0.705E-03  0.117E-04  0.163E-04
  17.720  0.105E-03  0.171E-02  0.336E-04  0.829E-03  0.126E-04  0.178E-04  0.126E-04  0.178E-04  0.336E-04  0.829E-03  0.126E-04  0.178E-04
  17.740  0.119E-03  0.198E-02  0.397E-04  0.964E-03  0.133E-04  0.191E-04  0.133E-04  0.191E-04  0.397E-04  0.964E-03  0.133E-04  0.191E-04
  17.760  0.132E-03  0.225E-02  0.456E-04  0.110E-02  0.137E-04  0.200E-04  0.137E-04  0.200E-04  0.456E-04  0.110E-02  0.137E-04  0.200E-04
  17.780  0.142E-03  0.248E-02  0.505E-04  0.121E-02  0.138E-04  0.204E-04  0.138E-04  0.204E-04  0.505E-04  0.121E-02  0.138E-04  0.204E-04
  17.800  0.149E-03  0.264E-02  0.540E-04  0.129E-02  0.136E-04  0.205E-04  0.136E-04  0.205E-04  0.540E-04  0.129E-02  0.136E-04  0.205E-04
  17.820  0.150E-03  0.272E-02  0.556E-04  0.133E-02  0.131E-04  0.201E-04  0.131E-04  0.201E-04  0.556E-04  0.133E-02  0.131E-04  0.201E-04
  17.840  0.147E-03  0.270E-02  0.551E-04  0.132E-02  0.124E-04  0.193E-04  0.124E-04  0.193E-04  0.551E-04  0.132E-02  0.124E-04  0.193E-04
  17.860  0.140E-03  0.259E-02  0.527E-04  0.127E-02  0.116E-04  0.183E-04  0.116E-04  0.183E-04  0.527E-04  0.127E-02  0.116E-04  0.183E-04
  17.880  0.129E-03  0.240E-02  0.487E-04  0.118E-02  0.107E-04  0.171E-04  0.107E-04  0.171E-04  0.487E-04  0.118E-02  0.107E-04  0.171E-04
  17.900  0.117E-03  0.216E-02  0.437E-04  0.106E-02  0.975E-05  0.159E-04  0.975E-05  0.159E-04  0.437E-04  0.106E-02  0.975E-05  0.159E-04
  17.920  0.103E-03  0.190E-02  0.383E-04  0.928E-03  0.893E-05  0.147E-04  0.893E-05  0.147E-04  0.383E-04  0.928E-03  0.893E-05  0.147E-04
  17.940  0.914E-04  0.164E-02  0.334E-04  0.800E-03  0.823E-05  0.137E-04  0.823E-05  0.137E-04  0.334E-04  0.800E-03  0.823E-05  0.137E-04
  17.960  0.817E-04  0.141E-02  0.293E-04  0.688E-03  0.767E-05  0.129E-04  0.767E-05  0.129E-04  0.293E-04  0.688E-03  0.767E-05  0.129E-04
  17.980  0.750E-04  0.124E-02  0.267E-04  0.600E-03  0.723E-05  0.122E-04  0.723E-05  0.122E-04  0.267E-04  0.600E-03  0.723E-05  0.122E-04
  18.000  0.719E-04  0.112E-02  0.256E-04  0.542E-03  0.689E-05  0.116E-04  0.689E-05  0.116E-04  0.256E-04  0.542E-03  0.689E-05  0.116E-04
  18.020  0.721E-04  0.106E-02  0.261E-04  0.515E-03  0.660E-05  0.110E-04  0.660E-05  0.110E-04  0.261E-04  0.515E-03  0.660E-05  0.110E-04
  18.040  0.753E-04  0.106E-02  0.282E-04  0.516E-03  0.633E-05  0.105E-04  0.633E-05  0.105E-04  0.282E-04  0.516E-03  0.633E-05  0.105E-04
  18.060  0.810E-04  0.111E-02  0.314E-04  0.540E-03  0.606E-05  0.994E-05  0.606E-05  0.994E-05  0.314E-04  0.540E-03  0.606E-05  0.994E-05
  18.080  0.885E-04  0.119E-02  0.356E-04  0.582E-03  0.576E-05  0.936E-05  0.576E-05  0.936E-05  0.356E-04  0.582E-03  0.576E-05  0.936E-05
  18.100  0.972E-04  0.130E-02  0.404E-04  0.636E-03  0.547E-05  0.880E-05  0.547E-05  0.880E-05  0.404E-04  0.636E-03  0.547E-05  0.880E-05
  18.120  0.106E-03  0.142E-02  0.454E-04  0.695E-03  0.519E-05  0.831E-05  0.519E-05  0.831E-05  0.454E-04  0.695E-03  0.519E-05  0.831E-05
  18.140  0.116E-03  0.153E-02  0.504E-04  0.755E-03  0.498E-05  0.796E-05  0.498E-05  0.796E-05  0.504E-04  0.755E-03  0.498E-05  0.796E-05
  18.160  0.125E-03  0.164E-02  0.550E-04  0.810E-03  0.489E-05  0.781E-05  0.489E-05  0.781E-05  0.550E-04  0.810E-03  0.489E-05  0.781E-05
  18.180  0.133E-03  0.174E-02  0.590E-04  0.858E-03  0.493E-05  0.790E-05  0.493E-05  0.790E-05  0.590E-04  0.858E-03  0.493E-05  0.790E-05
  18.200  0.140E-03  0.181E-02  0.624E-04  0.895E-03  0.515E-05  0.826E-05  0.515E-05  0.826E-05  0.624E-04  0.895E-03  0.515E-05  0.826E-05
  18.220  0.146E-03  0.187E-02  0.648E-04  0.921E-03  0.555E-05  0.889E-05  0.555E-05  0.889E-05  0.648E-04  0.921E-03  0.555E-05  0.889E-05
  18.240  0.151E-03  0.190E-02  0.663E-04  0.934E-03  0.614E-05  0.976E-05  0.614E-05  0.976E-05  0.663E-04  0.934E-03  0.614E-05  0.976E-05
  18.260  0.155E-03  0.190E-02  0.670E-04  0.935E-03  0.691E-05  0.109E-04  0.691E-05  0.109E-04  0.670E-04  0.935E-03  0.691E-05  0.109E-04
  18.280  0.157E-03  0.189E-02  0.669E-04  0.927E-03  0.786E-05  0.122E-04  0.786E-05  0.122E-04  0.669E-04  0.927E-03  0.786E-05  0.122E-04
  18.300  0.160E-03  0.187E-02  0.664E-04  0.915E-03  0.898E-05  0.137E-04  0.898E-05  0.137E-04  0.664E-04  0.915E-03  0.898E-05  0.137E-04
  18.320  0.163E-03  0.186E-02  0.659E-04  0.905E-03  0.103E-04  0.154E-04  0.103E-04  0.154E-04  0.659E-04  0.905E-03  0.103E-04  0.154E-04
  18.340  0.167E-03  0.186E-02  0.660E-04  0.902E-03  0.118E-04  0.174E-04  0.118E-04  0.174E-04  0.660E-04  0.902E-03  0.118E-04  0.174E-04
  18.360  0.175E-03  0.189E-02  0.672E-04  0.915E-03  0.134E-04  0.197E-04  0.134E-04  0.197E-04  0.672E-04  0.915E-03  0.134E-04  0.197E-04
  18.380  0.185E-03  0.196E-02  0.698E-04  0.946E-03  0.152E-04  0.222E-04  0.152E-04  0.222E-04  0.698E-04  0.946E-03  0.152E-04  0.222E-04
  18.400  0.200E-03  0.207E-02  0.741E-04  0.999E-03  0.172E-04  0.248E-04  0.172E-04  0.248E-04  0.741E-04  0.999E-03  0.172E-04  0.248E-04
  18.420  0.217E-03  0.223E-02  0.800E-04  0.107E-02  0.191E-04  0.275E-04  0.191E-04  0.275E-04  0.800E-04  0.107E-02  0.191E-04  0.275E-04
  18.440  0.237E-03  0.241E-02  0.871E-04  0.116E-02  0.210E-04  0.301E-04  0.210E-04  0.301E-04  0.871E-04  0.116E-02  0.210E-04  0.301E-04
  18.460  0.257E-03  0.259E-02  0.947E-04  0.125E-02  0.226E-04  0.324E-04  0.226E-04  0.324E-04  0.947E-04  0.125E-02  0.226E-04  0.324E-04
  18.480  0.276E-03  0.277E-02  0.102E-03  0.133E-02  0.239E-04  0.342E-04  0.239E-04  0.342E-04  0.102E-03  0.133E-02  0.239E-04  0.342E-04
  18.500  0.292E-03  0.291E-02  0.109E-03  0.140E-02  0.247E-04  0.353E-04  0.247E-04  0.353E-04  0.109E-03  0.140E-02  0.247E-04  0.353E-04
  18.520  0.303E-03  0.300E-02  0.114E-03  0.145E-02  0.250E-04  0.358E-04  0.250E-04  0.358E-04  0.114E-03  0.145E-02  0.250E-04  0.358E-04
  18.540  0.308E-03  0.304E-02  0.117E-03  0.147E-02  0.249E-04  0.356E-04  0.249E-04  0.356E-04  0.117E-03  0.147E-02  0.249E-04  0.356E-04
  18.560  0.310E-03  0.303E-02  0.118E-03  0.146E-02  0.243E-04  0.347E-04  0.243E-04  0.347E-04  0.118E-03  0.146E-02  0.243E-04  0.347E-04
  18.580  0.308E-03  0.298E-02  0.119E-03  0.144E-02  0.234E-04  0.335E-04  0.234E-04  0.335E-04  0.119E-03  0.144E-02  0.234E-04  0.335E-04
  18.600  0.304E-03  0.291E-02  0.119E-03  0.141E-02  0.223E-04  0.319E-04  0.223E-04  0.319E-04  0.119E-03  0.141E-02  0.223E-04  0.319E-04
  18.620  0.302E-03  0.284E-02  0.119E-03  0.137E-02  0.213E-04  0.303E-04  0.213E-04  0.303E-04  0.119E-03  0.137E-02  0.213E-04  0.303E-04
  18.640  0.303E-03  0.279E-02  0.121E-03  0.135E-02  0.204E-04  0.289E-04  0.204E-04  0.289E-04  0.121E-03  0.135E-02  0.204E-04  0.289E-04
  18.660  0.307E-03  0.278E-02  0.124E-03  0.135E-02  0.199E-04  0.279E-04  0.199E-04  0.279E-04  0.124E-03  0.135E-02  0.199E-04  0.279E-04
  18.680  0.316E-03  0.281E-02  0.128E-03  0.136E-02  0.198E-04  0.275E-04  0.198E-04  0.275E-04  0.128E-03  0.136E-02  0.198E-04  0.275E-04
  18.700  0.329E-03  0.286E-02  0.134E-03  0.139E-02  0.203E-04  0.278E-04  0.203E-04  0.278E-04  0.134E-03  0.139E-02  0.203E-04  0.278E-04
  18.720  0.344E-03  0.293E-02  0.140E-03  0.142E-02  0.214E-04  0.288E-04  0.214E-04  0.288E-04  0.140E-03  0.142E-02  0.214E-04  0.288E-04
  18.740  0.359E-03  0.300E-02  0.145E-03  0.145E-02  0.230E-04  0.306E-04  0.230E-04  0.306E-04  0.145E-03  0.145E-02  0.230E-04  0.306E-04
  18.760  0.374E-03  0.305E-02  0.149E-03  0.148E-02  0.251E-04  0.331E-04  0.251E-04  0.331E-04  0.149E-03  0.148E-02  0.251E-04  0.331E-04
  18.780  0.387E-03  0.308E-02  0.152E-03  0.149E-02  0.275E-04  0.362E-04  0.275E-04  0.362E-04  0.152E-03  0.149E-02  0.275E-04  0.362E-04
  18.800  0.398E-03  0.309E-02  0.154E-03  0.149E-02  0.300E-04  0.396E-04  0.300E-04  0.396E-04  0.154E-03  0.149E-02  0.300E-04  0.396E-04
  18.820  0.408E-03  0.309E-02  0.155E-03  0.148E-02  0.324E-04  0.431E-04  0.324E-04  0.431E-04  0.155E-03  0.148E-02  0.324E-04  0.431E-04
  18.840  0.416E-03  0.309E-02  0.156E-03  0.148E-02  0.345E-04  0.464E-04  0.345E-04  0.464E-04  0.156E-03  0.148E-02  0.345E-04  0.464E-04
  18.860  0.424E-03  0.310E-02  0.158E-03  0.148E-02  0.360E-04  0.492E-04  0.360E-04  0.492E-04  0.158E-03  0.148E-02  0.360E-04  0.492E-04
  18.880  0.433E-03  0.313E-02  0.161E-03  0.149E-02  0.369E-04  0.512E-04  0.369E-04  0.512E-04  0.161E-03  0.149E-02  0.369E-04  0.512E-04
  18.900  0.442E-03  0.317E-02  0.165E-03  0.151E-02  0.371E-04  0.521E-04  0.371E-04  0.521E-04  0.165E-03  0.151E-02  0.371E-04  0.521E-04
  18.920  0.450E-03  0.323E-02  0.170E-03  0.154E-02  0.365E-04  0.520E-04  0.365E-04  0.520E-04  0.170E-03  0.154E-02  0.365E-04  0.520E-04
  18.940  0.457E-03  0.330E-02  0.176E-03  0.157E-02  0.352E-04  0.507E-04  0.352E-04  0.507E-04  0.176E-03  0.157E-02  0.352E-04  0.507E-04
  18.960  0.463E-03  0.336E-02  0.182E-03  0.161E-02  0.334E-04  0.486E-04  0.334E-04  0.486E-04  0.182E-03  0.161E-02  0.334E-04  0.486E-04
  18.980  0.467E-03  0.342E-02  0.186E-03  0.164E-02  0.313E-04  0.458E-04  0.313E-04  0.458E-04  0.186E-03  0.164E-02  0.313E-04  0.458E-04
  19.000  0.467E-03  0.345E-02  0.190E-03  0.166E-02  0.290E-04  0.425E-04  0.290E-04  0.425E-04  0.190E-03  0.166E-02  0.290E-04  0.425E-04
  19.020  0.465E-03  0.345E-02  0.192E-03  0.166E-02  0.268E-04  0.393E-04  0.268E-04  0.393E-04  0.192E-03  0.166E-02  0.268E-04  0.393E-04
