#  E (eV)   dosup(E)     dosdw(E)   Int dos(E) EFermi =   13.140 eV
   8.000  0.1370E+01  0.1370E+01  0.2708E+02
   8.100  0.1353E+01  0.1353E+01  0.2735E+02
   8.200  0.1931E+01  0.1931E+01  0.2768E+02
   8.300  0.1677E+01  0.1677E+01  0.2805E+02
   8.400  0.1963E+01  0.1963E+01  0.2841E+02
   8.500  0.2048E+01  0.2048E+01  0.2883E+02
   8.600  0.1627E+01  0.1627E+01  0.2919E+02
   8.700  0.1271E+01  0.1271E+01  0.2948E+02
   8.800  0.1183E+01  0.1183E+01  0.2972E+02
   8.900  0.1124E+01  0.1124E+01  0.2995E+02
   9.000  0.1190E+01  0.1190E+01  0.3018E+02
   9.100  0.1314E+01  0.1314E+01  0.3043E+02
   9.200  0.1780E+01  0.1781E+01  0.3073E+02
   9.300  0.2255E+01  0.2255E+01  0.3116E+02
   9.400  0.1469E+01  0.1468E+01  0.3153E+02
   9.500  0.1912E+01  0.1912E+01  0.3183E+02
   9.600  0.1935E+01  0.1935E+01  0.3220E+02
   9.700  0.1841E+01  0.1841E+01  0.3259E+02
   9.800  0.1439E+01  0.1439E+01  0.3291E+02
   9.900  0.1426E+01  0.1427E+01  0.3319E+02
  10.000  0.1590E+01  0.1590E+01  0.3349E+02
  10.100  0.1831E+01  0.1829E+01  0.3397E+02
  10.200  0.2421E+01  0.2421E+01  0.3430E+02
  10.300  0.3640E+01  0.3641E+01  0.3492E+02
  10.400  0.2036E+01  0.2036E+01  0.3552E+02
  10.500  0.1546E+01  0.1546E+01  0.3586E+02
  10.600  0.1643E+01  0.1643E+01  0.3620E+02
  10.700  0.1678E+01  0.1678E+01  0.3651E+02
  10.800  0.2550E+01  0.2550E+01  0.3691E+02
  10.900  0.3806E+01  0.3805E+01  0.3766E+02
  11.000  0.2183E+01  0.2182E+01  0.3823E+02
  11.100  0.2709E+01  0.2709E+01  0.3874E+02
  11.200  0.2871E+01  0.2871E+01  0.3933E+02
  11.300  0.2539E+01  0.2539E+01  0.3984E+02
  11.400  0.3088E+01  0.3087E+01  0.4040E+02
  11.500  0.3735E+01  0.3736E+01  0.4112E+02
  11.600  0.2358E+01  0.2358E+01  0.4172E+02
  11.700  0.4450E+01  0.4450E+01  0.4231E+02
  11.800  0.5127E+01  0.5133E+01  0.4333E+02
  11.900  0.1381E+01  0.1381E+01  0.4382E+02
  12.000  0.3479E+00  0.3480E+00  0.4399E+02
  12.100  0.8044E+00  0.8044E+00  0.4408E+02
  12.200  0.1978E+01  0.1979E+01  0.4440E+02
  12.300  0.3099E+01  0.3099E+01  0.4486E+02
  12.400  0.4466E+01  0.4466E+01  0.4562E+02
  12.500  0.3290E+01  0.3289E+01  0.4642E+02
  12.600  0.2594E+01  0.2594E+01  0.4699E+02
  12.700  0.1863E+01  0.1863E+01  0.4748E+02
  12.800  0.1130E+01  0.1130E+01  0.4776E+02
  12.900  0.4968E+00  0.4968E+00  0.4792E+02
  13.000  0.1723E+00  0.1723E+00  0.4798E+02
  13.100  0.2153E-01  0.2152E-01  0.4800E+02
  13.200  0.0000E+00  0.0000E+00  0.4800E+02
  13.300  0.0000E+00  0.0000E+00  0.4800E+02
  13.400  0.0000E+00  0.0000E+00  0.4800E+02
  13.500  0.0000E+00  0.0000E+00  0.4800E+02
  13.600  0.0000E+00  0.0000E+00  0.4800E+02
  13.700  0.0000E+00  0.0000E+00  0.4800E+02
  13.800  0.0000E+00  0.0000E+00  0.4800E+02
  13.900  0.0000E+00  0.0000E+00  0.4800E+02
  14.000  0.0000E+00  0.0000E+00  0.4800E+02
  14.100  0.0000E+00  0.0000E+00  0.4800E+02
  14.200  0.0000E+00  0.0000E+00  0.4800E+02
  14.300  0.0000E+00  0.0000E+00  0.4800E+02
  14.400  0.0000E+00  0.0000E+00  0.4800E+02
  14.500  0.0000E+00  0.0000E+00  0.4800E+02
  14.600  0.0000E+00  0.0000E+00  0.4800E+02
  14.700  0.0000E+00  0.0000E+00  0.4800E+02
  14.800  0.0000E+00  0.0000E+00  0.4800E+02
  14.900  0.0000E+00  0.0000E+00  0.4800E+02
  15.000  0.0000E+00  0.0000E+00  0.4800E+02
  15.100  0.0000E+00  0.0000E+00  0.4800E+02
  15.200  0.0000E+00  0.0000E+00  0.4800E+02
  15.300  0.0000E+00  0.0000E+00  0.4800E+02
  15.400  0.0000E+00  0.0000E+00  0.4800E+02
  15.500  0.0000E+00  0.0000E+00  0.4800E+02
  15.600  0.0000E+00  0.0000E+00  0.4800E+02
  15.700  0.2966E-02  0.2936E-02  0.4800E+02
  15.800  0.2875E+00  0.2872E+00  0.4803E+02
  15.900  0.7764E+00  0.7763E+00  0.4813E+02
  16.000  0.1725E+01  0.1724E+01  0.4835E+02
  16.100  0.2623E+01  0.2622E+01  0.4880E+02
  16.200  0.2960E+01  0.2961E+01  0.4939E+02
  16.300  0.2965E+01  0.2964E+01  0.4991E+02
  16.400  0.4310E+01  0.4310E+01  0.5073E+02
  16.500  0.2527E+01  0.2529E+01  0.5143E+02
  16.600  0.1523E+01  0.1523E+01  0.5179E+02
  16.700  0.2830E+00  0.2836E+00  0.5200E+02
  16.800  0.1741E-01  0.1741E-01  0.5201E+02
  16.900  0.2469E-01  0.2469E-01  0.5201E+02
  17.000  0.2421E-01  0.2421E-01  0.5202E+02
  17.100  0.2629E-01  0.2629E-01  0.5202E+02
  17.200  0.2871E-01  0.2871E-01  0.5203E+02
  17.300  0.3510E-01  0.3510E-01  0.5203E+02
  17.400  0.3774E-01  0.3774E-01  0.5204E+02
  17.500  0.4011E-01  0.4011E-01  0.5205E+02
  17.600  0.4237E-01  0.4237E-01  0.5206E+02
  17.700  0.4516E-01  0.4516E-01  0.5207E+02
  17.800  0.5002E-01  0.5002E-01  0.5208E+02
  17.900  0.6158E-01  0.6158E-01  0.5209E+02
  18.000  0.5934E-01  0.5934E-01  0.5210E+02
  18.100  0.6307E-01  0.6307E-01  0.5211E+02
  18.200  0.6708E-01  0.6708E-01  0.5212E+02
  18.300  0.7106E-01  0.7106E-01  0.5214E+02
  18.400  0.8365E-01  0.8365E-01  0.5215E+02
  18.500  0.8412E-01  0.8412E-01  0.5217E+02
  18.600  0.8903E-01  0.8903E-01  0.5219E+02
  18.700  0.9441E-01  0.9440E-01  0.5221E+02
  18.800  0.1002E+00  0.1002E+00  0.5223E+02
  18.900  0.1081E+00  0.1081E+00  0.5225E+02
  19.000  0.1231E+00  0.1231E+00  0.5227E+02
